ENTRY            31650   20080823                             31303165000000001 
SUBENT        31650001   20080823                             31303165000100001 
BIB                 13         32                                 3165000100002 
TITLE      Nuclear structure of 187W studied with (n,gamma)       3165000100003 
           and (d, p) reactions                                   3165000100004 
AUTHOR     (V.Bondarenko,I.Tomandl,H.-F.Wirth,J.Honzatko,         3165000100005 
           A.M.Sukhovoj,L.A.Malov,L.I.Simonova,R.Hertenberger,    3165000100006 
           T.von Egidy,J.Berzins)                                 3165000100007 
INSTITUTE  (4LATULR,3CZRUJV,2GERMUN,2GERLMU,3CZRUJF,4ZZZDUB)      3165000100008 
REFERENCE  (J,NP/A,811,28,2008)                                   3165000100009 
           (J,NP/A,619,1,1997) preliminary results for levels     3165000100010 
                               in 187W till 2.2 MeV               3165000100011 
FACILITY   (REAC,3CZRUJF) the LWR-15 reactor at Rez near Prague.  3165000100012 
SAMPLE     The enriched sample (99.8%) of about 1.1 g             3165000100013 
METHOD     (GSPEC,COINC)                                          3165000100014 
ANALYSIS   Two single spectra were measured with both detectors   3165000100015 
           simultaneously, one in the energy range 0 - 2.35 MeV,  3165000100016 
           and another between 0 and 5.9 MeV. The relative        3165000100017 
           intensity of the 187W spectra was converted into       3165000100018 
           absolute units using activation lines from the         3165000100019 
           following  beta-decay to 187Re                         3165000100020 
INC-SOURCE (REAC) thermal neutrons from the neutron guide with    3165000100021 
           the flux on the target position of about               3165000100022 
           3 x 10**6 n/cm2/s at a reactor power of 8 MW.          3165000100023 
DETECTOR   (HPGE) two HPGe detectors (25% detector with a         3165000100024 
           resolution of 2 keV (FWHM) at 60Co lines and about 5   3165000100025 
           keV at 5-6 MeV and a 20% detector with approximately   3165000100026 
           the same resolution.) For both detectors the           3165000100027 
           relative efficiency and energy calibration was made    3165000100028 
           relative to the reaction 35Cl(n,gamma) and with the    3165000100029 
           radioactive sources 152Eu and 133Ba.                   3165000100030 
STATUS     (TABLE) Data were received from Dr. V.Bondarenko       3165000100031 
           (APRVD) Entry approved by Dr. V.Bondarenko             3165000100032 
ADD-RES    Results from (d,p) reaction are included in Entry D05063165000100033 
HISTORY    (20080823C)                                            3165000100034 
ENDBIB              32          0                                 3165000100035 
COMMON               1          3                                 3165000100036 
EN                                                                3165000100037 
EV                                                                3165000100038 
  0.0253                                                          3165000100039 
ENDCOMMON            3          0                                 3165000100040 
ENDSUBENT           39          0                                 3165000199999 
SUBENT        31650002   20080823                             31303165000200001 
BIB                  3          9                                 3165000200002 
REACTION   (74-W-186(N,G)74-W-187,,SPC,,SPA)  tbl.1               3165000200003 
           Gamma energies are not corected for recoil             3165000200004 
ERR-ANALYS (E-ERR) Uncertainty include statistical and            3165000200005 
           systematical errors.                                   3165000200006 
           (ERR-S) Statistical error is given.                    3165000200007 
FLAG       (1.) Only part of the total intensity is assigned      3165000200008 
                to this decay mode.                               3165000200009 
           (3.) Observed in coincidences.                         3165000200010 
           (4.) Questionable line.                                3165000200011 
ENDBIB               9          0                                 3165000200012 
NOCOMMON             0          0                                 3165000200013 
DATA                 6        752                                 3165000200014 
E          E-ERR      DATA       ERR-S      LVL-INI    FLAG       3165000200015 
KEV        KEV        PC/INC     PC/INC     KEV        NO-DIM     3165000200016 
      77.25       0.04      0.922      0.024       77.0           3165000200017 
      98.47       0.16      0.035      0.004      303.0           3165000200018 
     101.83       0.02      0.287      0.004      303.0           3165000200019 
     116.29       0.47      0.019      0.004                      3165000200020 
     117.41       0.18      0.055      0.004                      3165000200021 
     118.73       0.09      0.067      0.003                      3165000200022 
     120.54       0.18      0.025      0.003                      3165000200023 
     124.23       0.03      0.418      0.006      201.0           3165000200024 
     127.57       0.02      1.103      0.008      205.0           3165000200025 
     128.92       0.12      0.157      0.007      432.0           3165000200026 
     140.70       0.28      0.038      0.005      882.0           3165000200027 
     143.12       0.09      0.070      0.006      884.0           3165000200028 
     145.86       0.01      9.048      0.027      146.0           3165000200029 
     148.96       0.04      0.316      0.008      350.0           3165000200030 
     157.53       0.02      0.266      0.002      303.0           3165000200031 
     162.74       0.26      0.017      0.002      364.0           3165000200032 
     171.78       0.08      0.085      0.003      522.0           3165000200033 
     193.69       0.17      0.047      0.003                      3165000200034 
     195.31       0.23      0.036      0.004                      3165000200035 
     201.56       0.01      3.021      0.008      201.0           3165000200036 
     204.92       0.01      1.478      0.008      205.0           3165000200037 
     215.83       0.21      0.026      0.003     1082.0           3165000200038 
     218.86       0.13      0.053      0.004      741.0           3165000200039 
     226.08       0.01      0.797      0.004      303.0           3165000200040 
     227.45       0.09      0.114      0.004      432.0           3165000200041 
     229.84       0.80      0.025      0.008     1502.0           3165000200042 
     230.92       0.51      0.033      0.008      432.0           3165000200043 
     253.62       0.03      0.267      0.004      331.0           3165000200044 
     259.36       0.56      0.018      0.004                      3165000200045 
     260.77       0.27      0.028      0.004                      3165000200046 
     266.08       0.40      0.015      0.005     1082.0           3165000200047 
     268.66       0.17      0.034      0.003     1135.0           3165000200048 
     273.14       0.01      2.617      0.007      350.0           3165000200049 
     276.25       0.10      0.126      0.006      640.0           3165000200050 
     286.88       0.15      0.046      0.003      364.0           3165000200051 
     290.06       0.01      0.588      0.004      640.0           3165000200052 
     293.07       0.39      0.020      0.006                      3165000200053 
     294.95       0.13      0.054      0.005     1135.0           3165000200054 
     297.48       0.48      0.015      0.007                      3165000200055 
     303.37       0.02      0.553      0.004      303.0           3165000200056 
     310.48       0.27      0.026      0.004                      3165000200057 
     319.27       0.40      0.017      0.003                      3165000200058 
     330.99       0.07      0.159      0.004      741.0           3165000200059 
     332.51       0.38      0.028      0.004                      3165000200060 
     348.34       0.62      0.013      0.007                      3165000200061 
     350.40       0.11      0.060      0.004      350.0           3165000200062 
     355.02       0.03      0.344      0.004      432.0           3165000200063 
     363.05       0.28      0.027      0.003     1272.0           3165000200064 
     364.83       0.45      0.016      0.003     1217.0           3165000200065 
     368.06       0.31      0.021      0.003     1347.0           3165000200066 
     372.69       0.17      0.042      0.004                      3165000200067 
     376.86       0.02      0.431      0.004      741.0           3165000200068 
     380.37       0.19      0.055      0.006     1272.0           3165000200069 
     383.82       0.29      0.041      0.006     1692.0           3165000200070 
     390.67       0.06      0.128      0.003      741.0           3165000200071 
     397.61       0.34      0.024      0.004                      3165000200072 
     401.00       0.38      0.021      0.004     1217.0           3165000200073 
     405.65       0.26      0.028      0.003     1272.0           3165000200074 
     411.28       0.23      0.041      0.004      776.0           3165000200075 
     419.87       0.18      0.045      0.004     1272.0           3165000200076 
     423.99       0.14      0.385      0.028     1308.0           3165000200077 
     424.95       0.14      0.036      0.029                      3165000200078 
     428.47       0.07      0.151      0.004      861.0           3165000200079 
     432.46       0.52      0.021      0.006      432.0           3165000200080 
     438.86       0.20      0.039      0.004      640.0           3165000200081 
     446.60       0.15      0.063      0.005     1331.0           3165000200082 
     449.64       0.16      0.064      0.004     1308.0           3165000200083 
     451.61       0.34      0.031      0.005      884.0           3165000200084 
     455.20       0.14      0.051      0.005     1347.0           3165000200085 
     465.78       0.11      0.116      0.004      816.0           3165000200086 
     467.57       0.31      0.046      0.004     1331.0           3165000200087 
     469.37       0.29      0.044      0.005     1272.0           3165000200088 
     474.07       0.02      0.545      0.004      884.0           3165000200089 
     489.39       0.10      0.092      0.004     1373.0           3165000200090 
     492.31       0.27      0.034      0.004     1384.0           3165000200091 
     495.19       0.07      0.140      0.004     1347.0           3165000200092 
     500.07       0.04      0.438      0.007      803.0           3165000200093 
     517.46       0.26      0.034      0.004     1384.0           3165000200094 
     522.21       0.39      0.022      0.004     1502.0           3165000200095 
     528.15       0.05      0.260      0.005      960.0           3165000200096 
     531.33       0.03      0.499      0.006     1347.0           3165000200097 
     533.69       0.08      0.156      0.007      884.0           3165000200098 
     537.00       0.24      0.079      0.007                      3165000200099 
     538.52       0.32      0.120      0.012                      3165000200100 
     539.73       0.22      0.164      0.012      972.0           3165000200101 
     541.32       0.08      0.195      0.005      892.0           3165000200102 
     545.96       0.80      0.115      0.030     1308.0           3165000200103 
     547.35       0.77      0.189      0.035     1432.0           3165000200104 
     548.68       0.53      0.194      0.033     1331.0           3165000200105 
     557.25       0.02      1.238      0.009      762.0           3165000200106 
     559.54       0.27      0.075      0.009      863.0           3165000200107 
     563.51       0.20      0.058      0.007      640.0           3165000200108 
     565.16       0.29      0.067      0.006     1347.0           3165000200109 
     567.13       0.15      0.111      0.005     1308.0           3165000200110 
     569.16       0.25      0.078      0.006                      3165000200111 
     570.80       0.49      0.038      0.006                      3165000200112 
     577.39       0.02      1.954      0.011      782.0           3165000200113 
     588.75       0.06      0.172      0.007      892.0           3165000200114 
     590.71       0.45      0.041      0.006                      3165000200115 
     592.57       0.58      0.032      0.009     1502.0           3165000200116 
     598.54       0.08      0.161      0.006      803.0           3165000200117 
     601.90       0.12      0.116      0.007     1384.0           3165000200118 
     605.64       0.12      0.102      0.005      909.0           3165000200119 
     608.89       0.39      0.017      0.006                      3165000200120 
     611.31       0.03      0.619      0.007      816.0           3165000200121 
     612.88       0.19      0.103      0.007     1944.0           3165000200122 
     616.40       0.09      0.649      0.022      762.0           3165000200123 
     620.67       2.91      0.014      0.024                      3165000200124 
     624.23       0.67      0.070      0.018                      3165000200125 
     628.97       0.06      0.236      0.006      979.0           3165000200126 
     632.56       0.35      0.034      0.008     1415.0           3165000200127 
     635.28       0.14      0.255      0.013      840.0           3165000200128 
     636.52       0.38      0.095      0.013      782.0           3165000200129 
     640.23       0.22      0.135      0.024      640.0           3165000200130 
     640.88       0.37      0.077      0.025                      3165000200131 
     647.44       0.04      0.212      0.004      852.0           3165000200132 
     650.70       0.18      0.049      0.004      852.0           3165000200133 
     655.90       0.06      0.458      0.009      861.0           3165000200134 
     657.52       0.04      0.820      0.009      803.0           3165000200135 
     659.20       0.12      0.200      0.008      861.0           3165000200136 
     661.65       0.07      0.267      0.009      863.0           3165000200137 
     663.68       0.73      0.144      0.049      741.0           3165000200138 
     664.73       2.16      0.048      0.054                      3165000200139 
     670.41       0.04      0.477      0.008      816.0           3165000200140 
     676.82       0.10      0.092      0.005      882.0           3165000200141 
     680.15       0.28      0.033      0.006      882.0           3165000200142 
     690.42       0.69      0.018      0.007      892.0           3165000200143 
     694.38       0.03      0.508      0.006      840.0           3165000200144 
     697.99       0.23      0.054      0.005                      3165000200145 
     703.67       0.35      0.072      0.008                      3165000200146 
     705.49       1.12      0.072      0.030                      3165000200147 
     706.69       0.21      0.384      0.031      852.0           3165000200148 
     709.32       0.29      0.070      0.010      915.0           3165000200149 
     713.24       1.12      0.063      0.028      915.0           3165000200150 
     714.68       2.88      0.053      0.088     1018.0           3165000200151 
     717.40       0.43      0.045      0.011      863.0           3165000200152 
     720.25       0.27      0.040      0.005     1937.0           3165000200153 
     725.99       0.04      0.219      0.005      803.0           3165000200154 
     729.40       0.40      0.038      0.005     1613.0           3165000200155 
     730.96       0.42      0.036      0.005     1613.0           3165000200156 
     738.95       0.05      0.388      0.007      816.0           3165000200157 
     746.07       0.17      0.509      0.050      892.0           3165000200158 
     748.47       0.28      0.064      0.007     1565.0           3165000200159 
     755.68       0.59      0.024      0.007      960.0           3165000200160 
     759.01       0.19      0.075      0.006      960.0           3165000200161 
     762.87       0.04      0.448      0.007      840.0           3165000200162 
     766.81       0.34      0.033      0.005      872.0           3165000200163 
     770.60       0.32      0.098      0.012      872.0           3165000200164 
     774.95       0.10      0.355      0.012      852.0           3165000200165 
     778.25       0.65      0.033      0.012      979.0           3165000200166 
     782.25       0.06      1.359      0.030      782.0           3165000200167 
     783.53       0.41      0.183      0.027      861.0           3165000200168 
     785.84       0.16      0.165      0.007      863.0           3165000200169 
     787.69       0.18      0.250      0.011      989.0           3165000200170 
     789.23       0.07      0.536      0.012      867.0           3165000200171 
     796.66       0.30      0.040      0.005                      3165000200172 
     803.35       0.07      0.285      0.007      803.0           3165000200173 
     807.70       0.34      0.053      0.006     1692.0           3165000200174 
     813.78       0.30      0.299      0.043     1018.0           3165000200175 
     814.87       0.39      0.253      0.040      892.0           3165000200176 
     816.31       0.04      0.893      0.010      816.0           3165000200177 
     831.69       0.06      0.483      0.010      909.0           3165000200178 
     833.57       0.24      0.268      0.018      979.0           3165000200179 
     834.96       0.71      0.057      0.018     1267.0           3165000200180 
     837.33       0.16      0.134      0.007      915.0           3165000200181 
     840.20       0.02      1.555      0.010      840.0           3165000200182 
     846.68       0.69      0.021      0.006                      3165000200183 
     852.27       0.06      0.318      0.006      852.0           3165000200184 
     860.85       0.14      0.197      0.015      861.0           3165000200185 
     862.39       1.38      0.132      0.104     1997.0           3165000200186 
     863.42       1.10      0.241      0.102      863.0           3165000200187 
     865.45       2.03      0.125      0.189     1706.0           3165000200188 
     866.59       0.20      0.518      0.051      867.0           3165000200189 
     872.70       0.04      0.369      0.005     1018.0           3165000200190 
     877.42       0.06      0.328      0.007     1082.0           3165000200191 
     879.60       0.14      0.021      0.006     1974.0           3165000200192 
     881.63       0.05      0.443      0.006      882.0           3165000200193 
     889.40       0.07      0.261      0.006     1094.0           3165000200194 
     891.89       0.02      0.934      0.006      892.0           3165000200195 
     894.59       0.10      0.164      0.007      972.0           3165000200196 
     902.59       0.61      0.019      0.004                      3165000200197 
     908.98       0.34      0.962      0.195      909.0           3165000200198 
     909.98       6.22      0.051      0.199                      3165000200199 
     911.87       0.23      0.185      0.021      989.0           3165000200200 
     914.07       0.59      0.191      0.064     1217.0           3165000200201 
     915.08       0.94      0.128      0.065      915.0           3165000200202 
     921.97       0.39      0.033      0.005                      3165000200203 
     928.84       1.25      0.029      0.013                      3165000200204 
     930.22       0.38      0.097      0.012     1135.0           3165000200205 
     933.37       0.42      0.123      0.019     1135.0           3165000200206 
     934.65       2.23      0.024      0.019                      3165000200207 
     936.56       0.14      0.125      0.006     1082.0           3165000200208 
     941.17       0.13      0.122      0.006     1018.0           3165000200209 
     945.15       0.81      0.017      0.009                      3165000200210 
     947.94       0.84      0.015      0.006     1937.0           3165000200211 
     954.60       0.99      0.025      0.007     1771.0           3165000200212 
     956.32       0.87      0.032      0.009     1307.0           3165000200213 
     960.47       0.18      0.078      0.005      960.0           3165000200214 
     964.57       0.54      0.024      0.007     1937.0           3165000200215 
     967.61       0.60      0.020      0.006                      3165000200216 
     979.39       0.07      0.198      0.005      979.0           3165000200217 
     989.18       0.09      0.353      0.009      989.0           3165000200218 
     990.75       1.20      0.105      0.052                      3165000200219 
     994.41       0.87      0.036      0.018                      3165000200220 
     996.29       0.56      0.037      0.010                      3165000200221 
     999.06       0.68      0.036      0.021                      3165000200222 
    1001.41       0.22      0.081      0.014                      3165000200223 
    1004.52       1.04      0.018      0.010     1308.0           3165000200224 
    1008.67       0.14      0.099      0.007                      3165000200225 
    1012.29       0.04      0.433      0.006     1217.0           3165000200226 
    1014.62       0.35      0.062      0.005     1217.0           3165000200227 
    1016.60       0.32      0.092      0.006     1094.0           3165000200228 
    1018.41       0.08      0.303      0.007     1018.0           3165000200229 
    1022.68       0.92      0.025      0.012                      3165000200230 
    1024.96       0.29      0.070      0.008     1997.0           3165000200231 
    1027.34       0.10      0.196      0.007     1331.0           3165000200232 
    1030.66       0.42      0.038      0.017                      3165000200233 
    1033.85       0.15      0.108      0.014     1384.0           3165000200234 
    1036.78       0.34      0.052      0.010                      3165000200235 
    1039.15       0.48      0.039      0.007                      3165000200236 
    1041.47       0.41      0.066      0.007     1956.0           3165000200237 
    1043.26       1.09      0.023      0.007                      3165000200238 
    1051.00       0.25      0.052      0.004     1692.0           3165000200239 
    1057.88       0.05      0.300      0.005     1135.0           3165000200240 
    1060.86       0.14      0.106      0.007     1138.0           3165000200241 
    1064.63       0.75      0.044      0.009                      3165000200242 
    1066.45       0.98      0.086      0.025     1267.0           3165000200243 
    1067.82       0.22      0.353      0.026     1272.0           3165000200244 
    1071.24       0.03      0.686      0.007     1217.0           3165000200245 
    1078.91       0.14      0.132      0.006                      3165000200246 
    1082.18       0.19      0.604      0.044     1082.0           3165000200247 
    1083.45       1.14      0.099      0.045     1845.0           3165000200248 
    1086.07       0.08      0.240      0.007                      3165000200249 
    1089.42       0.55      0.031      0.008     1905.0           3165000200250 
    1094.19       0.08      0.193      0.005     1094.0           3165000200251 
    1096.88       0.54      0.027      0.005     1981.0           3165000200252 
    1102.93       0.22      0.066      0.006     1308.0           3165000200253 
    1105.24       0.15      0.108      0.005     1997.0           3165000200254 
    1107.74       0.06      0.304      0.006     1313.0           3165000200255 
    1111.42       0.46      0.031      0.008     1313.0           3165000200256 
    1115.29       0.17      0.046      0.005     1932.0           3165000200257 
    1120.44       0.33      0.043      0.007     1937.0           3165000200258 
    1123.52       1.86      0.036      0.023     1906.0           3165000200259 
    1124.91       1.78      0.050      0.020     1887.0           3165000200260 
    1126.50       0.42      0.110      0.011     1272.0           3165000200261 
    1128.63       0.71      0.036      0.009                      3165000200262 
    1130.65       0.61      0.046      0.013     1997.0           3165000200263 
    1133.87       0.90      0.092      0.033     1974.0           3165000200264 
    1135.18       0.35      0.249      0.030     1135.0           3165000200265 
    1138.38       0.44      0.098      0.012     1138.0           3165000200266 
    1139.94       0.17      0.272      0.012     1217.0           3165000200267 
    1142.07       0.49      0.041      0.006     1347.0           3165000200268 
    1145.47       2.59      0.020      0.015                      3165000200269 
    1146.99       1.31      0.039      0.015     1950.0           3165000200270 
    1151.73       0.26      0.092      0.009                      3165000200271 
    1153.92       0.28      0.078      0.008     2064.0           3165000200272 
    1156.50       1.00      0.067      0.024     1997.0           3165000200273 
    1157.91       1.21      0.059      0.023     1974.0           3165000200274 
    1161.98       0.34      0.046      0.005     1308.0           3165000200275 
    1167.80       4.98      0.022      0.040                      3165000200276 
    1169.12       0.49      0.225      0.039     1932.0           3165000200277 
    1179.26       0.43      0.110      0.013     1384.0           3165000200278 
    1180.87       1.11      0.063      0.012     1997.0           3165000200279 
    1182.55       1.45      0.034      0.010                      3165000200280 
    1184.57       0.25      0.108      0.007     1331.0           3165000200281 
    1188.37       1.00      0.016      0.008                      3165000200282 
    1193.79       0.73      0.022      0.005                      3165000200283 
    1198.95       0.38      0.057      0.007     1502.0           3165000200284 
    1201.23       0.17      0.041      0.006     1347.0           3165000200285 
    1210.81       0.35      0.064      0.008     1974.0           3165000200286 
    1216.00       0.35      0.064      0.007     1649.0           3165000200287 
    1220.75       1.15      0.023      0.011                      3165000200288 
    1222.97       0.75      0.028      0.007                      3165000200289 
    1228.23       1.78      0.055      0.038                      3165000200290 
    1229.58       1.51      0.081      0.033                      3165000200291 
    1231.22       0.55      0.082      0.011     1308.0           3165000200292 
    1235.96       0.65      0.034      0.012     1313.0           3165000200293 
    1238.72       0.28      0.068      0.008     1384.0           3165000200294 
    1241.87       0.28      0.066      0.007                      3165000200295 
    1250.21       0.74      0.033      0.006                      3165000200296 
    1252.47       0.76      0.036      0.006                      3165000200297 
    1254.85       0.37      0.062      0.006                      3165000200298 
    1260.64       0.50      0.034      0.006                      3165000200299 
    1265.85       0.65      0.035      0.010                      3165000200300 
    1268.97       0.39      0.055      0.007                      3165000200301 
    1272.18       0.11      0.195      0.007     1272.0           3165000200302 
    1280.65       0.35      0.053      0.005                      3165000200303 
    1283.19       0.31      0.058      0.005     1487.0           3165000200304 
    1286.91       0.18      0.088      0.006     1719.0           3165000200305 
    1296.73       0.13      0.189      0.006     1502.0           3165000200306 
    1298.84       0.62      0.039      0.006                      3165000200307 
    1304.09       0.73      0.024      0.006                      3165000200308 
    1307.02       0.39      0.054      0.006     1307.0           3165000200309 
    1309.34       0.60      0.039      0.008                      3165000200310 
    1313.21       0.68      0.046      0.008     1313.0           3165000200311 
    1315.18       1.48      0.029      0.008                      3165000200312 
    1317.08       1.29      0.025      0.008                      3165000200313 
    1321.34       1.09      0.025      0.010                      3165000200314 
    1329.44       0.18      0.161      0.009     1534.0           3165000200315 
    1336.15       0.95      0.027      0.010                      3165000200316 
    1341.00       0.19      0.123      0.009     1546.0           3165000200317 
    1345.12       0.60      0.065      0.010     1649.0           3165000200318 
    1347.04       0.31      0.122      0.009     1347.0           3165000200319 
    1356.09       0.25      0.077      0.007     1502.0           3165000200320 
    1359.95       0.09      0.213      0.006     1565.0           3165000200321 
    1366.13       1.78      0.015      0.010        0.0           3165000200322 
    1371.56       0.98      0.063      0.018     1675.0           3165000200323 
    1373.54       0.59      0.063      0.014     1374.0           3165000200324 
    1375.99       1.43      0.022      0.010                      3165000200325 
    1378.08       0.92      0.031      0.008                      3165000200326 
    1384.07       0.07      0.276      0.006     1589.0           3165000200327 
    1389.60       0.68      0.033      0.008     1692.0           3165000200328 
    1400.05       0.06      0.317      0.006     1546.0           3165000200329 
    1403.37       0.16      0.120      0.007     1549.0           3165000200330 
    1407.92       0.53      0.130      0.018     1613.0           3165000200331 
    1409.71       0.76      0.062      0.017     1487.0           3165000200332 
    1414.45       0.06      0.496      0.009     1619.0           3165000200333 
    1419.91       0.64      0.029      0.012                      3165000200334 
    1423.70       0.32      0.072      0.008     1727.0           3165000200335 
    1426.18       0.57      0.044      0.007     1729.0           3165000200336 
    1428.75       0.41      0.056      0.008                      3165000200337 
    1433.52       0.34      0.058      0.007                      3165000200338 
    1436.59       0.47      0.073      0.008                      3165000200339 
    1438.56       0.32      0.110      0.008     1644.0           3165000200340 
    1449.38       0.63      0.254      0.055     1595.0           3165000200341 
    1450.86       0.50      0.329      0.052     1451.0           3165000200342 
    1454.13       0.31      0.098      0.011                      3165000200343 
    1458.30       0.33      0.104      0.014     1663.0           3165000200344 
    1460.85       0.28      0.021      0.010                      3165000200345 
    1466.54       0.18      0.111      0.007     1613.0           3165000200346 
    1471.86       0.34      0.060      0.006     1675.0           3165000200347 
    1477.19       0.49      0.044      0.007                      3165000200348 
    1485.88       0.62      0.084      0.013     2352.0           3165000200349 
    1487.67       0.36      0.145      0.013     1487.0           3165000200350 
    1498.24       0.23      0.083      0.007     1644.0           3165000200351 
    1501.83       0.30      0.074      0.008     1502.0           3165000200352 
    1505.94       0.55      0.041      0.011                      3165000200353 
    1511.38       0.39      0.057      0.006                      3165000200354 
    1514.17       0.39      0.032      0.006     1719.0           3165000200355 
    1517.38       0.52      0.041      0.007     1663.0           3165000200356 
    1521.97       4.59      0.055      0.144     1727.0           3165000200357 
    1523.13       8.50      0.032      0.161                      3165000200358 
    1524.51       1.06      0.164      0.073     1729.0           3165000200359 
    1533.43       0.76      0.054      0.008     1534.0           3165000200360 
    1535.69       0.21      0.129      0.008     1613.0           3165000200361 
    1542.35       0.61      0.033      0.007     1619.0           3165000200362 
    1546.14       0.26      0.106      0.007     1546.0           3165000200363 
    1548.52       0.78      0.038      0.008                      3165000200364 
    1554.58       1.19      0.082      0.031     1760.0           3165000200365 
    1559.86       1.07      0.053      0.014                      3165000200366 
    1561.72       0.52      0.122      0.013                      3165000200367 
    1564.08       0.76      0.052      0.017     1997.0           3165000200368 
    1565.83       0.72      0.093      0.018     1771.0           3165000200369 
    1569.63       0.34      0.049      0.007                      3165000200370 
    1572.68       0.53      0.042      0.007                      3165000200371 
    1577.57       3.28      0.011      0.013                      3165000200372 
    1579.98       3.68      0.048      0.063                      3165000200373 
    1581.43       1.94      0.072      0.064     1727.0           3165000200374 
    1583.70       0.61      0.082      0.010     1729.0           3165000200375 
    1586.05       0.51      0.090      0.008     1663.0           3165000200376 
    1588.46       0.65      0.051      0.008     1589.0           3165000200377 
    1595.38       0.33      0.053      0.009     1675.0           3165000200378 
    1599.76       0.44      0.079      0.010                      3165000200379 
    1602.13       0.57      0.072      0.011                      3165000200380 
    1604.67       3.52      0.011      0.015                      3165000200381 
    1609.47       0.68      0.048      0.010                      3165000200382 
    1612.02       1.11      0.078      0.022     1816.0           3165000200383 
    1613.70       0.62      0.132      0.024     1760.0           3165000200384 
    1619.09       0.21      0.113      0.008     1619.0           3165000200385 
    1622.69       0.49      0.047      0.006                      3165000200386 
    1628.29       0.21      0.109      0.007     1932.0           3165000200387 
    1633.79       0.26      0.094      0.007     1937.0           3165000200388 
    1639.31       1.14      0.064      0.020                      3165000200389 
    1641.07       0.90      0.089      0.018     1845.0           3165000200390 
    1643.54       1.22      0.026      0.006     1644.0           3165000200391 
    1646.79       0.20      0.118      0.007     1950.0           3165000200392 
    1652.69       0.21      0.116      0.007     1956.0           3165000200393 
    1662.42       0.28      0.080      0.007                      3165000200394 
    1667.67       0.67      0.016      0.007                      3165000200395 
    1670.48       0.80      0.035      0.010                      3165000200396 
    1675.74       2.28      0.046      0.033                      3165000200397 
    1677.38       0.88      0.123      0.031     1981.0           3165000200398 
    1680.65       0.67      0.037      0.009                      3165000200399 
    1686.40       0.19      0.142      0.009     1891.0           3165000200400 
    1691.69       0.24      0.115      0.008     1692.0           3165000200401 
    1697.25       0.48      0.051      0.008                      3165000200402 
    1700.77       0.13      0.187      0.007     1906.0           3165000200403 
    1705.92       0.26      0.088      0.009     1706.0           3165000200404 
    1710.81       2.12      0.057      0.036     1711.0           3165000200405 
    1712.49       0.82      0.063      0.033     1858.0           3165000200406 
    1716.65       0.49      0.010      0.007                      3165000200407 
    1726.47       0.25      0.151      0.009                      3165000200408 
    1729.13       0.34      0.130      0.010     1729.0           3165000200409 
    1731.87       1.24      0.033      0.013     1937.0           3165000200410 
    1737.55       0.49      0.008      0.006                      3165000200411 
    1741.33       0.77      0.031      0.005     2045.0           3165000200412 
    1744.83       0.68      0.035      0.006                      3165000200413 
    1754.43       0.67      0.034      0.006                      3165000200414 
    1759.76       0.17      0.141      0.006     1906.0           3165000200415 
    1771.06       0.43      0.077      0.009     1771.0           3165000200416 
    1784.30       0.49      0.092      0.010     1931.0           3165000200417 
    1786.62       0.59      0.077      0.009     1933.0           3165000200418 
    1789.71       0.73      0.053      0.008                      3165000200419 
    1792.28       0.21      0.228      0.009     1997.0           3165000200420 
    1794.80       0.87      0.046      0.009                      3165000200421 
    1802.50       0.40      0.072      0.008                      3165000200422 
    1807.71       0.67      0.083      0.014                      3165000200423 
    1810.05       0.44      0.091      0.012     1887.0           3165000200424 
    1812.98       0.36      0.101      0.009                      3165000200425 
    1816.25       0.44      0.071      0.008                      3165000200426 
    1821.42       0.65      0.042      0.010                      3165000200427 
    1827.75       0.17      0.167      0.008     1974.0           3165000200428 
    1841.52       0.57      0.048      0.012                      3165000200429 
    1845.57       1.06      0.028      0.019     1845.0           3165000200430 
    1850.36       0.52      0.050      0.008                      3165000200431 
    1854.42       0.64      0.042      0.009                      3165000200432 
    1866.08       0.54      0.059      0.008                      3165000200433 
    1869.02       0.44      0.070      0.007                      3165000200434 
    1873.36       0.68      0.037      0.008     1950.0           3165000200435 
    1879.43       0.33      0.090      0.011     1956.0           3165000200436 
    1882.88       0.83      0.061      0.011                      3165000200437 
    1885.16       0.41      0.133      0.011                      3165000200438 
    1888.12       0.34      0.056      0.010     1887.0           3165000200439 
    1891.30       0.55      0.062      0.013     1891.0           3165000200440 
    1896.99       0.30      0.124      0.008     1974.0           3165000200441 
    1900.11       0.83      0.045      0.009                      3165000200442 
    1905.63       0.28      0.123      0.014     1906.0           3165000200443 
    1909.33       0.21      0.146      0.008                      3165000200444 
    1915.77       1.05      0.044      0.022                      3165000200445 
    1918.74       0.62      0.095      0.015                      3165000200446 
    1921.02       0.33      0.134      0.014     1997.0           3165000200447 
    1924.76       0.18      0.159      0.010     2071.0           3165000200448 
    1932.33       0.43      0.063      0.007     1932.0           3165000200449 
    1937.73       0.14      0.193      0.007                      3165000200450 
    1945.50       1.61      0.076      0.060     2150.0           3165000200451 
    1946.72       2.38      0.053      0.058                      3165000200452 
    1956.34       0.41      0.091      0.011     1956.0           3165000200453 
    1964.12       0.83      0.062      0.010                      3165000200454 
    1966.71       0.58      0.090      0.010     2045.0           3165000200455 
    1974.18       0.31      0.057      0.008     1974.0           3165000200456 
    1977.29       0.48      0.073      0.007                      3165000200457 
    1980.82       0.35      0.096      0.007     1981.0           3165000200458 
    1984.06       0.55      0.021      0.009                      3165000200459 
    1989.06       0.84      0.052      0.014                      3165000200460 
    1997.48       0.31      0.076      0.008     1997.0           3165000200461 
     2001.1        0.8      0.040      0.009                      3165000200462 
     2008.6        0.3      0.035      0.014                      3165000200463 
     2013.3        0.9      0.033      0.014      2090.           3165000200464 
    2018.58       0.21      0.042      0.006      2322.         1.3165000200465 
    2023.33       0.25      0.064      0.006      2169.         1.3165000200466 
    2027.19       0.20      0.152      0.019      2233.         1.3165000200467 
     2029.8        0.4      0.068      0.011                      3165000200468 
    2033.87       0.25      0.063      0.007                      3165000200469 
    2037.00       0.12      0.176      0.013      2242.           3165000200470 
     2041.8        0.9      0.026      0.008                      3165000200471 
    2044.89       0.17      0.120      0.016      2045.         1.3165000200472 
     2048.4        1.3      0.027      0.011      2124.           3165000200473 
     2055.0        1.0      0.027      0.011      2260.           3165000200474 
     2061.8        0.7      0.101      0.028      2208.         1.3165000200475 
     2063.5        0.8      0.087      0.027      2142.         1.3165000200476 
     2071.8        0.3      0.079      0.007      2276.           3165000200477 
     2075.1        0.4      0.092      0.007                      3165000200478 
     2076.8        0.7      0.088      0.010      2154.         1.3165000200479 
     2079.2        0.5      0.070      0.007                      3165000200480 
    2082.59       0.12      0.143      0.013      2229.         1.3165000200481 
     2089.2        0.4      0.178      0.066      2293.         1.3165000200482 
     2091.5        0.6      0.185      0.062      2090.           3165000200483 
    2095.76       0.12      0.170      0.018      2242.           3165000200484 
    2100.23       0.16      0.094      0.014      2306.         1.3165000200485 
     2108.1        0.7      0.083      0.020      2411.         1.3165000200486 
     2110.2        0.7      0.074      0.018      2316.         1.3165000200487 
    2117.61       0.17      0.089      0.007      2118.         1.3165000200488 
    2124.89       0.10      0.228      0.019      5467.           3165000200489 
    2128.76       0.20      0.077      0.007      2273.         1.3165000200490 
     2134.1        0.6      0.044      0.009      2282.         1.3165000200491 
    2137.34       0.26      0.134      0.012      2283.         1.3165000200492 
     2139.8        0.4      0.119      0.012      2139.           3165000200493 
     2147.3        0.6      0.054      0.025      2352.         1.3165000200494 
     2151.2        0.3      0.146      0.012      2229.         1.3165000200495 
     2153.7        0.6      0.053      0.012      2153.         1.3165000200496 
     2157.7        0.4      0.097      0.009      2462.         1.3165000200497 
     2160.4        0.5      0.071      0.009      2306.         1.3165000200498 
    2168.60       0.15      0.071      0.012      2169.         1.3165000200499 
     2172.9        0.4      0.059      0.009      2477.         1.3165000200500 
    2176.18       0.22      0.089      0.018      2381.         1.3165000200501 
    2181.44       0.13      0.131      0.012      2484.         1.3165000200502 
     2194.8        0.3      0.073      0.007      2195.         1.3165000200503 
    2198.35       0.13      0.153      0.008      2198.           3165000200504 
     2203.8        0.3      0.015      0.008      2282.           3165000200505 
    2210.87       0.12      0.112      0.023      2356.         1.3165000200506 
     2228.9        0.3      0.119      0.016      2434.         1.3165000200507 
     2239.5        0.4      0.061      0.012      2384.         1.3165000200508 
    2242.75       0.15      0.204      0.013      2447.         1.3165000200509 
    2248.88       0.16      0.126      0.010      2553.         1.3165000200510 
    2252.64       0.22      0.105      0.010                      3165000200511 
     2257.7        0.3      0.064      0.008      2258.           3165000200512 
     2262.2        0.7      0.021      0.008                      3165000200513 
    2274.13       0.19      0.118      0.016      2273.         1.3165000200514 
     2276.4        1.1      0.056      0.012      2276.         1.3165000200515 
    2283.93       0.14      0.121      0.026      2487.         1.3165000200516 
     2290.1        0.5      0.173      0.030      5467.           3165000200517 
     2291.7        0.6      0.148      0.038      2497.         1.3165000200518 
     2295.3        0.6      0.086      0.016      5467.         1.3165000200519 
     2298.2        0.6      0.073      0.013      2601.         1.3165000200520 
     2301.6        0.7      0.047      0.011      2302.         1.3165000200521 
    2308.18       0.22      0.055      0.012                      3165000200522 
     2316.2        0.3      0.065      0.014      2316.         1.3165000200523 
    2322.03       0.08      0.335      0.015      5467.         1.3165000200524 
     2326.3        0.4      0.051      0.011                      3165000200525 
     2330.4        0.5      0.037      0.015                      3165000200526 
     2333.5        1.3      0.048      0.017      2411.           3165000200527 
     2343.6        0.6      0.072      0.012      3145.         1.3165000200528 
     2346.3        0.3      0.153      0.013      2492.         1.3165000200529 
     2349.6        1.7      0.149      0.013      2654.         1.3165000200530 
     2354.8        0.6      0.057      0.013      3342.         1.3165000200531 
     2361.8        0.3      0.069      0.011      2565.         1.3165000200532 
     2368.8        0.6      0.062      0.028      2514.         1.3165000200533 
     2371.4        1.3      0.037      0.028      2370.           3165000200534 
     2377.4        0.4      0.049      0.016      2583.         1.3165000200535 
     2388.6        0.3      0.047      0.007      2534.           3165000200536 
     2394.8        0.5      0.039      0.015      2471.           3165000200537 
     2397.7        0.8      0.041      0.022                      3165000200538 
     2400.4        0.8      0.011      0.006                      3165000200539 
    2408.71       0.17      0.096      0.011      2613.         1.3165000200540 
     2414.9        0.3      0.072      0.008      2415.         1.3165000200541 
     2419.6        0.3      0.143      0.014      2624.         1.3165000200542 
    2422.63       0.18      0.178      0.014      2628.         1.3165000200543 
    2431.45       0.13      0.257      0.011      2637.         1.3165000200544 
    2442.71       0.18      0.088      0.011      2646.         1.3165000200545 
     2451.7        0.3      0.106      0.011      2528.         1.3165000200546 
     2455.8        0.5      0.058      0.012      2532.         1.3165000200547 
     2462.5        0.4      0.011      0.006      3342.           3165000200548 
     2472.2        0.6      0.190      0.063      2618.           3165000200549 
     2475.7        0.6      0.042      0.012      3342.         1.3165000200550 
    2481.58       0.22      0.245      0.023      2628.         1.3165000200551 
     2484.3        0.3      0.158      0.023      2484.         1.3165000200552 
     2492.6        0.6      0.068      0.015      2492.         1.3165000200553 
     2495.4        0.4      0.110      0.017                      3165000200554 
     2504.3        0.4      0.064      0.011                      3165000200555 
     2508.8        0.3      0.132      0.021                      3165000200556 
    2511.74       0.24      0.104      0.020      2511.         1.3165000200557 
     2515.5        0.4      0.076      0.011      2514.         1.3165000200558 
    2520.38       0.18      0.135      0.012      2726.           3165000200559 
    2528.73       0.20      0.061      0.010                      3165000200560 
    2537.22       0.21      0.228      0.019      5467.           3165000200561 
    2553.28       0.18      0.202      0.014                      3165000200562 
    2556.94       0.14      0.259      0.013      5467.           3165000200563 
    2563.63       0.24      0.086      0.010      2565.         1.3165000200564 
      2570.        0.4      0.051      0.011      5467.         1.3165000200565 
    2577.75       0.24      0.078      0.019                      3165000200566 
    2584.56       0.07      0.400      0.013      5467.           3165000200567 
    2589.95       0.15      0.124      0.009      2589.         1.3165000200568 
     2596.2        0.4      0.022      0.006      5467.         3.3165000200569 
    2601.75       0.11      0.185      0.007      5467.           3165000200570 
    2606.09       0.16      0.070      0.006      2910.         1.3165000200571 
    2617.75       0.23      0.179      0.016      2618.           3165000200572 
     2622.1        0.3      0.036      0.006      5467.         3.3165000200573 
     2627.1        0.8      0.036      0.014      2628.           3165000200574 
     2629.5        0.3      0.082      0.016      5467.           3165000200575 
     2633.2        0.4      0.041      0.008      5467.           3165000200576 
    2635.99       0.22      0.086      0.008                      3165000200577 
     2643.8        0.5      0.041      0.010                      3165000200578 
     2646.5        0.8      0.088      0.025      5467.           3165000200579 
     2650.4        0.6      0.018      0.008                      3165000200580 
     2654.5        0.3      0.035      0.007                      3165000200581 
    2661.05       0.19      0.087      0.009      5467.           3165000200582 
     2670.9        0.5      0.036      0.013      5467.           3165000200583 
     2677.0        0.6      0.088      0.033      5467.           3165000200584 
     2682.6        1.0      0.074      0.020                      3165000200585 
     2686.1        0.4      0.113      0.011      5467.           3165000200586 
    2689.80       0.18      0.165      0.012      2690.         1.3165000200587 
     2696.2        0.8      0.067      0.021                      3165000200588 
     2699.2        1.1      0.046      0.014                      3165000200589 
    2704.57       0.22      0.122      0.012      5467.           3165000200590 
     2708.5        1.3      0.288      0.011      5467.           3165000200591 
    2730.08       0.22      0.076      0.032      5467.           3165000200592 
     2735.5        0.7      0.084      0.020      2736.         1.3165000200593 
    2738.68       0.17      0.304      0.020      5467.           3165000200594 
     2740.9        0.8      0.084      0.030                      3165000200595 
    2744.95       0.19      0.135      0.011      5467.           3165000200596 
     2749.8        0.3      0.120      0.033      5467.           3165000200597 
     2752.3        0.4      0.046      0.034      5467.           3165000200598 
     2757.7        0.4      0.080      0.014                      3165000200599 
    2760.51       0.09      0.266      0.009      5467.           3165000200600 
    2769.47       0.14      0.131      0.010      5467.           3165000200601 
     2777.8        0.3      0.083      0.010      5467.           3165000200602 
     2781.6        0.3      0.043      0.009      5467.           3165000200603 
     2784.9        0.5      0.112      0.032                      3165000200604 
    2786.44       0.10      0.217      0.009      5467.           3165000200605 
     2796.5        0.3      0.075      0.013                      3165000200606 
     2802.3        0.5      0.050      0.013                      3165000200607 
    2805.79       0.20      0.157      0.014      5467.           3165000200608 
     2813.6        0.3      0.097      0.012      5467.           3165000200609 
     2816.2        0.3      0.083      0.018                      3165000200610 
     2819.5        0.3      0.032      0.010      5467.           3165000200611 
     2830.4        0.6      0.118      0.044                      3165000200612 
     2831.7        0.8      0.059      0.028      2910.           3165000200613 
    2839.22       0.18      0.163      0.011      5467.           3165000200614 
    2842.81       0.09      0.317      0.010      5467.           3165000200615 
    2849.04       0.05      0.359      0.008      5467.           3165000200616 
    2855.47       0.23      0.030      0.010                      3165000200617 
     2860.9        0.5      0.052      0.011      5467.           3165000200618 
     2864.8        0.6      0.033      0.011                      3165000200619 
     2867.1        0.7      0.026      0.010      5467.           3165000200620 
     2873.6        0.6      0.045      0.016                      3165000200621 
     2877.6        0.3      0.259      0.031      5467.           3165000200622 
    2882.76       0.15      0.089      0.010      5467.           3165000200623 
     2893.7        0.8      0.056      0.025                    3.3165000200624 
     2896.1        1.2      0.055      0.020      5467.         3.3165000200625 
    2902.35       0.19      0.224      0.012      5467.         1.3165000200626 
     2906.5        0.5      0.070      0.008      5467.           3165000200627 
     2910.5        0.3      0.189      0.027      5467.           3165000200628 
     2913.3        0.4      0.170      0.028      5467.           3165000200629 
     2921.0        0.3      0.058      0.008      5467.           3165000200630 
     2932.0        0.7      0.136      0.061                      3165000200631 
     2934.5        1.4      0.084      0.041      5467.           3165000200632 
    2939.35       0.17      0.227      0.013      3145.         1.3165000200633 
    2952.49       0.21      0.173      0.013      5467.           3165000200634 
     2956.2        0.8      0.132      0.039      5467.         1.3165000200635 
     2963.3        0.4      0.074      0.016      5467.           3165000200636 
     2971.4        0.7      0.067      0.016      3176.         1.3165000200637 
     2974.8        0.3      0.122      0.016      5467.         1.3165000200638 
     2980.8        1.1      0.067                 5467.         4.3165000200639 
     2986.9        1.6      0.040      0.013      5467.           3165000200640 
     2996.3        0.4      0.243      0.030      5467.           3165000200641 
    3005.89       0.16      0.156      0.019      5467.           3165000200642 
     3009.8        0.6      0.060      0.025      5467.           3165000200643 
    3018.63       0.18      0.062      0.012      5467.           3165000200644 
     3028.7        0.9      0.046      0.014      5467.           3165000200645 
     3032.6        0.9      0.047      0.016      5467.           3165000200646 
    3040.00       0.15      0.143      0.010      5467.           3165000200647 
     3048.5        0.9      0.080      0.033                      3165000200648 
    3051.28       0.24      0.160      0.031      5467.           3165000200649 
    3055.49       0.09      0.287      0.008      5467.           3165000200650 
     3073.5        0.5      0.038      0.007      5467.           3165000200651 
     3085.4        0.6      0.035      0.009      5467.           3165000200652 
     3092.4        3.0      0.019                 5467.         4.3165000200653 
     3095.7        1.1      0.122      0.106      5467.           3165000200654 
     3097.8        0.6      0.065                 5467.         4.3165000200655 
     3109.5        0.4      0.035      0.011      5467.           3165000200656 
    3114.91       0.11      0.263      0.012      5467.           3165000200657 
     3122.4        0.9      0.132      0.067      5467.           3165000200658 
     3145.2        0.4      0.051      0.012      3145.         1.3165000200659 
    3151.39       0.19      0.099      0.009      5467.           3165000200660 
    3160.38       0.16      0.118      0.010      5467.           3165000200661 
    3173.69       0.25      0.066      0.007      5467.           3165000200662 
     3179.3        0.5      0.023      0.006      5467.         3.3165000200663 
    3183.89       0.17      0.073      0.006      5467.           3165000200664 
    3191.11       0.18      0.317      0.021      5467.           3165000200665 
     3194.1        0.5      0.107      0.021      5467.         1.3165000200666 
     3200.2        0.5      0.019      0.011      5467.         3.3165000200667 
    3206.78       0.08      0.274      0.007      5467.           3165000200668 
    3225.44       0.23      0.664      0.062      5467.           3165000200669 
     3234.4        0.3      0.138      0.013      5467.           3165000200670 
    3238.54       0.24      0.144      0.014      5467.           3165000200671 
     3258.7        0.4      0.051      0.008      5467.           3165000200672 
     3263.7        0.3      0.029      0.013      5467.           3165000200673 
     3267.9        1.2      0.070      0.042      5467.           3165000200674 
    3286.47       0.26      0.064      0.011      5467.           3165000200675 
     3293.0        1.0      0.013      0.009      5467.         3.3165000200676 
     3298.0        0.8      0.133      0.054      5467.           3165000200677 
     3313.6        0.3      0.163      0.016      5467.           3165000200678 
     3316.8        0.4      0.117      0.016      5467.           3165000200679 
     3325.8        0.9      0.059      0.022      5467.           3165000200680 
     3328.8        0.3      0.174      0.020      5467.           3165000200681 
    3342.65       0.21      0.095      0.012      5467.         1.3165000200682 
    3349.69       0.11      0.141      0.011      5467.           3165000200683 
    3376.70       0.19      0.326      0.070      5467.           3165000200684 
     3383.3        0.7      0.031      0.022      5467.         3.3165000200685 
     3395.5        1.1      0.022      0.008      5467.           3165000200686 
     3404.7        0.7      0.032      0.013      5467.           3165000200687 
     3408.3        1.0      0.016                 5467.         4.3165000200688 
     3422.9        0.4      0.217      0.010      5467.           3165000200689 
     3437.5        1.0      0.019      0.010      5467.           3165000200690 
    3443.37       0.17      0.102      0.007      5467.           3165000200691 
    3465.60       0.17      0.090      0.009      5467.           3165000200692 
    3469.79       0.05      1.200      0.010      5467.           3165000200693 
    3486.69       0.19      0.166      0.012      5467.           3165000200694 
    3493.17       0.08      0.521      0.013      5467.           3165000200695 
     3505.3        0.3      0.014      0.008      5467.           3165000200696 
    3510.66       0.06      0.420      0.009      5467.           3165000200697 
     3516.8        0.4      0.054      0.012      5467.           3165000200698 
     3524.2        0.8      0.025      0.014      5467.         3.3165000200699 
    3530.68       0.24      0.352      0.070      5467.           3165000200700 
    3535.19       0.17      0.672      0.044      5467.           3165000200701 
    3561.22       0.06      0.673      0.009      5467.           3165000200702 
     3575.7        0.3      0.189      0.012      5467.           3165000200703 
     3579.6        0.6      0.044      0.012      5467.           3165000200704 
    3608.66       0.22      0.082      0.015      5467.           3165000200705 
     3621.7        0.3      0.084      0.009      5467.           3165000200706 
     3642.5        0.4      0.032      0.008      5467.           3165000200707 
     3650.4        1.8      0.036      0.024      5467.           3165000200708 
    3696.04       0.24      0.078      0.007      5467.           3165000200709 
     3708.0        0.5      0.039      0.007      5467.           3165000200710 
     3734.0        0.7      0.064      0.020      5467.           3165000200711 
    3738.32       0.16      0.183      0.100      5467.           3165000200712 
     3740.2        0.4      0.439      0.093      5467.           3165000200713 
    3747.67       0.22      0.116      0.012      5467.           3165000200714 
     3756.2        0.8      0.031      0.009      5467.         3.3165000200715 
    3761.07       0.13      0.183      0.008      5467.           3165000200716 
    3775.14       0.09      0.220      0.007      5467.           3165000200717 
    3803.69       0.11      0.187      0.007      5467.           3165000200718 
     3818.8        1.1      0.034      0.012      5467.         3.3165000200719 
     3823.5        0.6      0.081      0.016      5467.           3165000200720 
    3847.68       0.06      0.546      0.009      5467.           3165000200721 
    3854.05       0.23      0.095      0.010      5467.           3165000200722 
     3871.9        0.7      0.015      0.005      5467.         3.3165000200723 
     3876.9        0.4      0.046      0.006      5467.           3165000200724 
    3902.12       0.09      0.237      0.007      5467.           3165000200725 
     3917.4        0.5      0.084      0.013      5467.           3165000200726 
    3921.05       0.20      0.222      0.014      5467.           3165000200727 
     3933.1        0.9      0.046      0.012      5467.           3165000200728 
    3965.27       0.12      0.332      0.016      5467.           3165000200729 
     3981.0        2.3      0.013                 5467.         4.3165000200730 
    4016.08       0.11      0.198      0.007      5467.           3165000200731 
     4051.3        0.5      0.026      0.005      5467.           3165000200732 
    4082.61       0.07      0.349      0.007      5467.           3165000200733 
     4094.0        0.5      0.027      0.005      5467.         3.3165000200734 
    4119.10       0.16      0.609      0.030      5467.           3165000200735 
     4135.3        0.4      0.103      0.011      5467.           3165000200736 
     4154.0        0.4      0.092      0.010      5467.           3165000200737 
    4158.67       0.11      0.369      0.011      5467.           3165000200738 
     4194.4        0.5      0.012      0.006      5467.         3.3165000200739 
    4249.72       0.12      1.185      0.050      5467.           3165000200740 
    4331.69       0.07      0.414      0.009      5467.           3165000200741 
     4372.5        0.4      0.074      0.010      5467.           3165000200742 
     4379.7        0.6      0.047      0.007      5467.         3.3165000200743 
    4384.54       0.06      0.654      0.010      5467.           3165000200744 
    4448.27       0.11      0.546      0.016      5467.           3165000200745 
     4470.3        0.6      0.033      0.010      5467.         4.3165000200746 
    4477.64       0.13      0.159      0.008      5467.           3165000200747 
    4487.20       0.12      0.178      0.007      5467.           3165000200748 
     4494.1        2.0      0.007                 5467.         4.3165000200749 
     4506.3        1.7      0.005                 5467.         4.3165000200750 
     4551.6        2.7      0.007                 5467.         4.3165000200751 
    4557.88       0.10      0.265      0.008      5467.           3165000200752 
    4574.92       0.05      0.923      0.011      5467.           3165000200753 
     4585.7        0.6      0.013      0.005      5467.         3.3165000200754 
     4602.6        1.5      0.061      0.029      5467.           3165000200755 
     4606.6        1.1      0.040      0.015      5467.         3.3165000200756 
     4615.3        0.7      0.013      0.003      5467.         3.3165000200757 
    4626.57       0.05      1.470      0.017      5467.           3165000200758 
    4650.54       0.06      0.518      0.008      5467.           3165000200759 
     4662.8        0.3      0.058      0.007      5467.           3165000200760 
    4684.53       0.05      1.750      0.016      5467.           3165000200761 
     4704.8        0.4      0.023      0.003      5467.         3.3165000200762 
     4826.0        1.0      0.012      0.003      5467.         3.3165000200763 
     5163.5        0.4      0.034      0.005      5467.         3.3165000200764 
    5261.81       0.07      5.830      0.065      5467.           3165000200765 
    5320.84       0.07      4.118      0.049      5467.           3165000200766 
    5388.85       0.26      0.036      0.003      5467.           3165000200767 
    5466.63       0.09      0.256      0.004      5467.           3165000200768 
ENDDATA            754          0                                 3165000200769 
ENDSUBENT          768          0                                 3165000299999 
SUBENT        31650003   20080823                             31303165000300001 
BIB                  3          6                                 3165000300002 
REACTION   (74-W-186(N,G)74-W-187,,SIG,,SPA) neutron radiative    3165000300003 
                      capture cross section for 2200 m/s neutrons 3165000300004 
ANALYSIS   For the extraction of the thermal cross section        3165000300005 
           21 most reliable secondary and 28 primary gamma-rays   3165000300006 
           were selected.                                         3165000300007 
ERR-ANALYS (DATA-ERR) Nothing said about uncertainty              3165000300008 
ENDBIB               6          0                                 3165000300009 
NOCOMMON             0          0                                 3165000300010 
DATA                 2          1                                 3165000300011 
DATA       DATA-ERR                                               3165000300012 
B          B                                                      3165000300013 
  35.9        1.1                                                 3165000300014 
ENDDATA              3          0                                 3165000300015 
ENDSUBENT           14          0                                 3165000399999 
ENDENTRY             3          0                                 3165099999999 
