ENTRY            32807   20241011                             32153280700000001 
SUBENT        32807001   20241011                             32153280700100001 
BIB                 12         56                                 3280700100002 
TITLE      Measurement of the neutron total cross section of      3280700100003 
           carbon at the Back-n white neutron beam of CSNS        3280700100004 
AUTHOR     (Xing-Yan Liu,Yi-Wei Yang,Rong Liu,Jie Wen,            3280700100005 
           Zhong-Wei Wen,Zi-Jie Han,Zhi-Zhou Ren,Qi An,           3280700100006 
           Huai-Yong Bai,Jie Bao,Ping Cao, Qi-Ping Chen,          3280700100007 
           Yong-Hao Chen,Pin-Jing Cheng,Zeng-Qi Cui,Rui-Rui Fan,  3280700100008 
           Chang-Qing Feng,Min-Hao Gu,Feng-Qin Guo,Chang-Cai Han, 3280700100009 
           Guo-Zhu He,Yong-Cheng He,Yue-Feng He,Han-Xiong Huang,  3280700100010 
           Wei-Ling Huang,Xi-Ru Huang,Xiao-Lu Ji,Xu-Yang Ji,      3280700100011 
           Hao-Yu Jiang,Wei Jiang,Han-Tao Jing,Ling Kang,         3280700100012 
           Ming-Tao Kang,Bo Li,Lun Li, Qiang Li,Xiao Li,Yang Li,  3280700100013 
           Yang Li,Shu-Bin Liu,Guang-Yuan Luan,Ying-Lin Ma,       3280700100014 
           Chang-Jun Ning,Bin-Bin Qi,Jie Ren,Xi-Chao Ruan,        3280700100015 
           Zhao-Hui Song,Hong Sun,Xiao-Yang Sun,Zhi-Jia Sun,      3280700100016 
           Zhi-Xin Tan,Hong-Qing Tang,Jing-Yu Tang,               3280700100017 
           Peng-Cheng Wang,Qi Wang, Tao-Feng Wang,Yan-Feng Wang,  3280700100018 
           Zhao-Hui Wang,Zheng Wang,Qing-Biao Wu,Xiao-Guang Wu,   3280700100019 
           Xuan Wu,Li-Kun Xie,Han Yi,Li Yu, Tao Yu,Yong-Ji Yu,    3280700100020 
           Guo-Hui Zhang,Jing Zhang,Lin-Hao Zhang, Li-Ying Zhang, 3280700100021 
           Qing-Min Zhang,Qi-Wei Zhang,Xian-Peng Zhang,           3280700100022 
           Yu-Liang Zhang,Zhi-Yong Zhang,Ying-Tan Zhao,           3280700100023 
           Liang Zhou,Zu-Ying Zhou,Dan-Yang Zhu,Ke-Jun Zhu,       3280700100024 
           Peng Zhu)                                              3280700100025 
INSTITUTE  (3CPRNPC,3CPRHST,3CPRBJG,3CPRAEP,3CPRIHP,3CPRNIX,      3280700100026 
           3CPRBHN)                                               3280700100027 
           (3CPRCPR) State Key Laboratory of Particle Detection   3280700100028 
           and Electronics, Chinese Academy of Sciences (CAS),    3280700100029 
           Beijing                                                3280700100030 
           (3CPRCPR) Spallation Neutron Source Science Center,    3280700100031 
           Dongguan                                               3280700100032 
           (3CPRCPR) University of South China, Hengyang          3280700100033 
           (3CPRCPR) Xian Jiaotong University, Xian               3280700100034 
REFERENCE  (J,CNST,30,139,2019)                                   3280700100035 
           #doi:10.1007/s41365-019-0660-9                         3280700100036 
FACILITY   (SYNCH,3CPRIHP) Back-n white neutron source of China   3280700100037 
           Spallation Neutron Source (CSNS)                       3280700100038 
INC-SOURCE (SPALL) Neutrons are produced via 1.6 GeV proton-      3280700100039 
           induced spallation reactions on a Tungsten target.     3280700100040 
           The incident proton pulse was in double-bunch mode,    3280700100041 
           about 50 ns (FWHM) wide and 410 ns apart.              3280700100042 
SAMPLE     A cylindrical natural graphite sample with diameter    3280700100043 
           of 70.07 +- 0.02 mm, thickness of 40.03 +- 0.02 mm     3280700100044 
           and mass of 287.79 +- 0.01 g. The calculated density   3280700100045 
           of the sample was 1.86 g/cm3.                          3280700100046 
DETECTOR   (FISCH) A multilayer fast ionization chamber is        3280700100047 
           located in the neutron beam line at Endstation 2.      3280700100048 
           Three 235U and three 238U cells are located in the     3280700100049 
           detector.                                              3280700100050 
METHOD     (TOF) A flight path about 76 m.                        3280700100051 
ERR-ANALYS (ERR-S) The uncertainty of the counting statistics is  3280700100052 
           generally approximately 3% for each bin in the energy  3280700100053 
           range of 1-20 MeV.                                     3280700100054 
STATUS     (TABLE,,Xingyan Liu+,J,CNST,30,139,2019)               3280700100055 
            Data presented by author                              3280700100056 
HISTORY    (20241210R) The data received from Xing-Yan Liu        3280700100057 
           (20241011C) Jimin Wang (CNDC)                          3280700100058 
ENDBIB              56          0                                 3280700100059 
NOCOMMON             0          0                                 3280700100060 
ENDSUBENT           59          0                                 3280700199999 
SUBENT        32807002   20241011                             32153280700200001 
BIB                  3          3                                 3280700200002 
REACTION   (6-C-0(N,TOT),,SIG)                                    3280700200003 
COMMENT    The measured results with 235U cells                   3280700200004 
STATUS     (COREL,32807003) Data measured with 238U cells         3280700200005 
ENDBIB               3          0                                 3280700200006 
NOCOMMON             0          0                                 3280700200007 
DATA                 3        751                                 3280700200008 
EN         DATA       ERR-S                                       3280700200009 
EV         B          PER-CENT                                    3280700200010 
  1.001E+00    4.87946       1.80                                 3280700200011 
  1.024E+00    4.67405       1.76                                 3280700200012 
  1.048E+00    4.78497       1.62                                 3280700200013 
  1.073E+00    4.85710       1.54                                 3280700200014 
  1.098E+00    4.81349       1.53                                 3280700200015 
  1.123E+00    4.78548       1.67                                 3280700200016 
  1.149E+00    4.75613       1.94                                 3280700200017 
  1.176E+00    4.77173       2.35                                 3280700200018 
  1.204E+00    4.88666       2.72                                 3280700200019 
  1.232E+00    5.02888       3.11                                 3280700200020 
  1.260E+00    5.07968       2.90                                 3280700200021 
  1.290E+00    4.53944       3.48                                 3280700200022 
  1.320E+00    4.72830       3.71                                 3280700200023 
  1.351E+00    4.86477       3.62                                 3280700200024 
  1.382E+00    4.76001       3.55                                 3280700200025 
  1.414E+00    4.78502       3.76                                 3280700200026 
  1.447E+00    4.62963       4.05                                 3280700200027 
  1.481E+00    4.76792       4.05                                 3280700200028 
  1.515E+00    5.06704       3.73                                 3280700200029 
  1.551E+00    4.79940       4.17                                 3280700200030 
  1.587E+00    5.17181       3.84                                 3280700200031 
  1.624E+00    4.75820       4.27                                 3280700200032 
  1.661E+00    4.81222       4.10                                 3280700200033 
  1.700E+00    5.08205       3.99                                 3280700200034 
  1.740E+00    4.78759       4.44                                 3280700200035 
  1.780E+00    4.86747       3.88                                 3280700200036 
  1.822E+00    4.83415       3.99                                 3280700200037 
  1.864E+00    4.64282       4.21                                 3280700200038 
  1.908E+00    4.51140       3.95                                 3280700200039 
  1.952E+00    4.57323       3.23                                 3280700200040 
  1.998E+00    4.92951       3.42                                 3280700200041 
  2.044E+00    4.69109       4.61                                 3280700200042 
  2.092E+00    5.02019       4.29                                 3280700200043 
  2.140E+00    4.80720       4.66                                 3280700200044 
  2.190E+00    4.80535       4.98                                 3280700200045 
  2.241E+00    4.67613       4.96                                 3280700200046 
  2.294E+00    5.06599       4.75                                 3280700200047 
  2.347E+00    5.27756       4.51                                 3280700200048 
  2.402E+00    5.21486       4.87                                 3280700200049 
  2.458E+00    4.70850       5.76                                 3280700200050 
  2.515E+00    5.21240       5.28                                 3280700200051 
  2.573E+00    5.02822       5.87                                 3280700200052 
  2.633E+00    4.96240       5.66                                 3280700200053 
  2.695E+00    5.24243       4.05                                 3280700200054 
  2.757E+00    4.80839       3.87                                 3280700200055 
  2.822E+00    4.79625       3.59                                 3280700200056 
  2.887E+00    5.02243       3.25                                 3280700200057 
  2.955E+00    5.11820       2.58                                 3280700200058 
  3.023E+00    4.86488       2.25                                 3280700200059 
  3.094E+00    4.61610       2.87                                 3280700200060 
  3.166E+00    4.87054       3.91                                 3280700200061 
  3.240E+00    4.89157       3.93                                 3280700200062 
  3.315E+00    4.83008       4.06                                 3280700200063 
  3.392E+00    4.85896       2.71                                 3280700200064 
  3.471E+00    4.56863       2.19                                 3280700200065 
  3.552E+00    4.83304       2.84                                 3280700200066 
  3.635E+00    4.71033       7.19                                 3280700200067 
  3.720E+00    4.53690      11.86                                 3280700200068 
  3.806E+00    5.95174       9.25                                 3280700200069 
  3.895E+00    4.60595      13.56                                 3280700200070 
  3.986E+00    4.43341      11.12                                 3280700200071 
  4.078E+00    4.65514      12.33                                 3280700200072 
  4.173E+00    4.85568      11.72                                 3280700200073 
  4.271E+00    4.97959      13.56                                 3280700200074 
  4.370E+00    4.49549      10.08                                 3280700200075 
  4.472E+00    4.46099       8.45                                 3280700200076 
  4.576E+00    4.34277       6.69                                 3280700200077 
  4.683E+00    4.54204       4.12                                 3280700200078 
  4.792E+00    4.89237       6.82                                 3280700200079 
  4.903E+00    5.25545       5.78                                 3280700200080 
  5.018E+00    4.85413       5.08                                 3280700200081 
  5.135E+00    5.00849       4.17                                 3280700200082 
  5.254E+00    4.95431       3.51                                 3280700200083 
  5.377E+00    4.68552       3.72                                 3280700200084 
  5.502E+00    5.11241       3.40                                 3280700200085 
  5.630E+00    4.71656       3.59                                 3280700200086 
  5.761E+00    4.75344       3.11                                 3280700200087 
  5.895E+00    5.00849       2.23                                 3280700200088 
  6.033E+00    4.93000       1.83                                 3280700200089 
  6.173E+00    4.64117       1.49                                 3280700200090 
  6.317E+00    4.96972       3.15                                 3280700200091 
  6.464E+00    4.94374       6.03                                 3280700200092 
  6.615E+00    4.93381       4.98                                 3280700200093 
  6.769E+00    4.70766       2.24                                 3280700200094 
  6.926E+00    4.75149       2.59                                 3280700200095 
  7.088E+00    4.86279       6.64                                 3280700200096 
  7.253E+00    4.63398      10.08                                 3280700200097 
  7.422E+00    5.11763      10.10                                 3280700200098 
  7.595E+00    4.48518      10.24                                 3280700200099 
  7.771E+00    4.72949       7.46                                 3280700200100 
  7.952E+00    5.02681       3.86                                 3280700200101 
  8.138E+00    4.82158       2.36                                 3280700200102 
  8.327E+00    4.70797       0.92                                 3280700200103 
  8.521E+00    4.84253       0.61                                 3280700200104 
  8.720E+00    4.83545       1.17                                 3280700200105 
  8.923E+00    4.86665       1.38                                 3280700200106 
  9.131E+00    4.91131       1.85                                 3280700200107 
  9.343E+00    4.87025       2.47                                 3280700200108 
  9.561E+00    4.82152       3.29                                 3280700200109 
  9.784E+00    4.80570       2.88                                 3280700200110 
  1.001E+01    4.81732       3.75                                 3280700200111 
  1.024E+01    4.80240       3.83                                 3280700200112 
  1.048E+01    4.88397       3.90                                 3280700200113 
  1.073E+01    5.02376       3.69                                 3280700200114 
  1.098E+01    4.58646       3.38                                 3280700200115 
  1.123E+01    4.72251       1.89                                 3280700200116 
  1.149E+01    4.86787       3.06                                 3280700200117 
  1.176E+01    4.87746       1.37                                 3280700200118 
  1.204E+01    4.74087       0.94                                 3280700200119 
  1.232E+01    4.82342       2.54                                 3280700200120 
  1.260E+01    4.63005       3.14                                 3280700200121 
  1.290E+01    4.84065       2.73                                 3280700200122 
  1.320E+01    4.80769       2.05                                 3280700200123 
  1.351E+01    4.90389       1.50                                 3280700200124 
  1.382E+01    4.90541       1.83                                 3280700200125 
  1.414E+01    4.91491       2.67                                 3280700200126 
  1.447E+01    4.77883       4.04                                 3280700200127 
  1.481E+01    4.67666       2.12                                 3280700200128 
  1.515E+01    4.74300       3.94                                 3280700200129 
  1.551E+01    5.16885       1.85                                 3280700200130 
  1.587E+01    4.83698       2.57                                 3280700200131 
  1.624E+01    4.86447       1.95                                 3280700200132 
  1.661E+01    4.68800       4.61                                 3280700200133 
  1.700E+01    4.67440       3.78                                 3280700200134 
  1.740E+01    5.08292       1.45                                 3280700200135 
  1.780E+01    4.79208       2.79                                 3280700200136 
  1.822E+01    4.75311       1.88                                 3280700200137 
  1.864E+01    4.58825       0.85                                 3280700200138 
  1.908E+01    4.89298       2.29                                 3280700200139 
  1.952E+01    4.75082       3.29                                 3280700200140 
  1.998E+01    4.95275       2.30                                 3280700200141 
  2.044E+01    4.94785       1.60                                 3280700200142 
  2.092E+01    4.81243       6.65                                 3280700200143 
  2.140E+01    5.18264       7.53                                 3280700200144 
  2.190E+01    5.08442       2.56                                 3280700200145 
  2.241E+01    4.91903       1.78                                 3280700200146 
  2.294E+01    4.87410       1.62                                 3280700200147 
  2.347E+01    4.82630       1.96                                 3280700200148 
  2.402E+01    4.82372       2.10                                 3280700200149 
  2.458E+01    4.84077       1.55                                 3280700200150 
  2.515E+01    4.71155       2.54                                 3280700200151 
  2.573E+01    4.69963       2.13                                 3280700200152 
  2.633E+01    4.90082       3.44                                 3280700200153 
  2.695E+01    5.00849       1.94                                 3280700200154 
  2.757E+01    4.77978       2.99                                 3280700200155 
  2.822E+01    4.94052       4.97                                 3280700200156 
  2.887E+01    4.64544       4.16                                 3280700200157 
  2.955E+01    4.66411       2.30                                 3280700200158 
  3.023E+01    4.88773       3.31                                 3280700200159 
  3.094E+01    4.76333       1.23                                 3280700200160 
  3.166E+01    4.82971       3.72                                 3280700200161 
  3.240E+01    4.64088       1.55                                 3280700200162 
  3.315E+01    4.83402       1.18                                 3280700200163 
  3.392E+01    4.78204       0.93                                 3280700200164 
  3.471E+01    4.82459       2.23                                 3280700200165 
  3.552E+01    4.89778       3.20                                 3280700200166 
  3.635E+01    4.95708       3.23                                 3280700200167 
  3.720E+01    4.64364       2.83                                 3280700200168 
  3.806E+01    4.93918       1.47                                 3280700200169 
  3.895E+01    4.89245       2.44                                 3280700200170 
  3.986E+01    4.79374       1.82                                 3280700200171 
  4.078E+01    4.62561       1.97                                 3280700200172 
  4.173E+01    4.82375       2.51                                 3280700200173 
  4.271E+01    4.62674       2.04                                 3280700200174 
  4.370E+01    4.66258       2.68                                 3280700200175 
  4.472E+01    4.74401       2.59                                 3280700200176 
  4.576E+01    4.65568       2.14                                 3280700200177 
  4.683E+01    4.83652       1.76                                 3280700200178 
  4.792E+01    4.87787       2.05                                 3280700200179 
  4.903E+01    4.87557       1.06                                 3280700200180 
  5.018E+01    4.78283       1.04                                 3280700200181 
  5.135E+01    4.86283       1.81                                 3280700200182 
  5.254E+01    4.85127       1.56                                 3280700200183 
  5.377E+01    4.86808       0.89                                 3280700200184 
  5.502E+01    4.87096       1.04                                 3280700200185 
  5.630E+01    4.78981       1.27                                 3280700200186 
  5.761E+01    4.80256       1.80                                 3280700200187 
  5.895E+01    4.91010       1.83                                 3280700200188 
  6.033E+01    4.76790       2.67                                 3280700200189 
  6.173E+01    4.57695       2.49                                 3280700200190 
  6.317E+01    4.82918       3.89                                 3280700200191 
  6.464E+01    4.87764       4.32                                 3280700200192 
  6.615E+01    4.78221       2.99                                 3280700200193 
  6.769E+01    4.71027       1.16                                 3280700200194 
  6.926E+01    4.73264       1.44                                 3280700200195 
  7.088E+01    4.84250       1.98                                 3280700200196 
  7.253E+01    4.68767       1.47                                 3280700200197 
  7.422E+01    4.90074       2.73                                 3280700200198 
  7.595E+01    4.95881       2.17                                 3280700200199 
  7.771E+01    4.77882       2.17                                 3280700200200 
  7.952E+01    4.82962       2.28                                 3280700200201 
  8.138E+01    4.82471       1.35                                 3280700200202 
  8.327E+01    4.84961       2.58                                 3280700200203 
  8.521E+01    4.95540       1.85                                 3280700200204 
  8.720E+01    4.99648       1.93                                 3280700200205 
  8.923E+01    4.73665       1.78                                 3280700200206 
  9.131E+01    4.89069       2.26                                 3280700200207 
  9.343E+01    4.52997       2.60                                 3280700200208 
  9.561E+01    4.95678       2.49                                 3280700200209 
  9.784E+01    4.84942       3.58                                 3280700200210 
  1.001E+02    4.76654       2.08                                 3280700200211 
  1.024E+02    4.93848       1.98                                 3280700200212 
  1.048E+02    4.80683       2.34                                 3280700200213 
  1.073E+02    4.80754       2.55                                 3280700200214 
  1.098E+02    4.45338       3.24                                 3280700200215 
  1.123E+02    4.72984       2.08                                 3280700200216 
  1.149E+02    4.85091       1.79                                 3280700200217 
  1.176E+02    4.80821       1.63                                 3280700200218 
  1.204E+02    4.78379       1.69                                 3280700200219 
  1.232E+02    4.73622       2.27                                 3280700200220 
  1.260E+02    4.81958       4.07                                 3280700200221 
  1.290E+02    4.92208       2.52                                 3280700200222 
  1.320E+02    4.79892       2.44                                 3280700200223 
  1.351E+02    4.77555       3.00                                 3280700200224 
  1.382E+02    4.72416       2.44                                 3280700200225 
  1.414E+02    5.03937       1.83                                 3280700200226 
  1.447E+02    4.84343       1.93                                 3280700200227 
  1.481E+02    4.75400       2.71                                 3280700200228 
  1.515E+02    4.80292       2.71                                 3280700200229 
  1.551E+02    4.74750       2.29                                 3280700200230 
  1.587E+02    4.97633       1.97                                 3280700200231 
  1.624E+02    4.89651       1.83                                 3280700200232 
  1.661E+02    4.70456       2.88                                 3280700200233 
  1.700E+02    4.99668       1.44                                 3280700200234 
  1.740E+02    4.84015       2.01                                 3280700200235 
  1.780E+02    4.81339       4.06                                 3280700200236 
  1.822E+02    4.78067       3.15                                 3280700200237 
  1.864E+02    4.83609       2.56                                 3280700200238 
  1.908E+02    4.56030       2.18                                 3280700200239 
  1.952E+02    4.89634       2.00                                 3280700200240 
  1.998E+02    4.68829       2.54                                 3280700200241 
  2.044E+02    4.81897       1.87                                 3280700200242 
  2.092E+02    4.75462       2.54                                 3280700200243 
  2.140E+02    4.76348       1.85                                 3280700200244 
  2.190E+02    5.00713       2.12                                 3280700200245 
  2.241E+02    4.84191       1.75                                 3280700200246 
  2.294E+02    4.70405       2.14                                 3280700200247 
  2.347E+02    4.62119       1.87                                 3280700200248 
  2.402E+02    4.78331       2.72                                 3280700200249 
  2.458E+02    4.93492       2.14                                 3280700200250 
  2.515E+02    4.87852       1.70                                 3280700200251 
  2.573E+02    4.79213       1.70                                 3280700200252 
  2.633E+02    4.87431       1.60                                 3280700200253 
  2.695E+02    4.76703       2.03                                 3280700200254 
  2.757E+02    4.89813       2.46                                 3280700200255 
  2.822E+02    4.71379       2.31                                 3280700200256 
  2.887E+02    5.06134       2.32                                 3280700200257 
  2.955E+02    4.91674       2.44                                 3280700200258 
  3.023E+02    4.50873       2.64                                 3280700200259 
  3.094E+02    4.81342       2.54                                 3280700200260 
  3.166E+02    4.76708       2.82                                 3280700200261 
  3.240E+02    4.69885       3.48                                 3280700200262 
  3.315E+02    5.07001       3.00                                 3280700200263 
  3.392E+02    4.81217       3.20                                 3280700200264 
  3.471E+02    4.88695       2.83                                 3280700200265 
  3.552E+02    4.81562       2.84                                 3280700200266 
  3.635E+02    5.20687       2.67                                 3280700200267 
  3.720E+02    4.77541       2.49                                 3280700200268 
  3.806E+02    4.88785       3.54                                 3280700200269 
  3.895E+02    4.64782       2.73                                 3280700200270 
  3.986E+02    4.67416       3.08                                 3280700200271 
  4.078E+02    4.98654       2.15                                 3280700200272 
  4.173E+02    5.04247       1.99                                 3280700200273 
  4.271E+02    4.83384       2.10                                 3280700200274 
  4.370E+02    4.74613       2.62                                 3280700200275 
  4.472E+02    5.08711       1.77                                 3280700200276 
  4.576E+02    4.89113       1.95                                 3280700200277 
  4.683E+02    4.81921       2.03                                 3280700200278 
  4.792E+02    4.74748       1.97                                 3280700200279 
  4.903E+02    4.71926       1.79                                 3280700200280 
  5.018E+02    4.81414       2.05                                 3280700200281 
  5.135E+02    4.83277       1.95                                 3280700200282 
  5.254E+02    4.89346       2.34                                 3280700200283 
  5.377E+02    4.80600       2.47                                 3280700200284 
  5.502E+02    4.60839       2.01                                 3280700200285 
  5.630E+02    4.90818       2.16                                 3280700200286 
  5.761E+02    5.04460       1.91                                 3280700200287 
  5.895E+02    4.72395       2.10                                 3280700200288 
  6.033E+02    4.65727       2.39                                 3280700200289 
  6.173E+02    4.75694       2.13                                 3280700200290 
  6.317E+02    4.79591       2.75                                 3280700200291 
  6.464E+02    4.84314       2.30                                 3280700200292 
  6.615E+02    4.82804       2.46                                 3280700200293 
  6.769E+02    5.04287       2.03                                 3280700200294 
  6.926E+02    4.85354       2.54                                 3280700200295 
  7.088E+02    4.67095       2.71                                 3280700200296 
  7.253E+02    4.79633       2.75                                 3280700200297 
  7.422E+02    4.97448       2.09                                 3280700200298 
  7.595E+02    4.77160       2.07                                 3280700200299 
  7.771E+02    4.82898       3.15                                 3280700200300 
  7.952E+02    4.81462       3.24                                 3280700200301 
  8.138E+02    4.84334       2.50                                 3280700200302 
  8.327E+02    4.65988       2.55                                 3280700200303 
  8.521E+02    4.74013       2.64                                 3280700200304 
  8.720E+02    5.01891       1.99                                 3280700200305 
  8.923E+02    4.69518       1.90                                 3280700200306 
  9.131E+02    4.65940       3.03                                 3280700200307 
  9.343E+02    4.81037       3.28                                 3280700200308 
  9.561E+02    4.64189       2.84                                 3280700200309 
  9.784E+02    4.84584       2.83                                 3280700200310 
  1.001E+03    4.87704       2.41                                 3280700200311 
  1.024E+03    4.79216       1.78                                 3280700200312 
  1.048E+03    4.95963       3.05                                 3280700200313 
  1.073E+03    4.97835       3.58                                 3280700200314 
  1.098E+03    4.87206       2.61                                 3280700200315 
  1.123E+03    4.78780       2.08                                 3280700200316 
  1.149E+03    4.87562       2.57                                 3280700200317 
  1.176E+03    4.75778       2.34                                 3280700200318 
  1.204E+03    4.68774       2.72                                 3280700200319 
  1.232E+03    4.93401       2.66                                 3280700200320 
  1.260E+03    4.81014       2.31                                 3280700200321 
  1.290E+03    4.67373       2.19                                 3280700200322 
  1.320E+03    4.72145       1.93                                 3280700200323 
  1.351E+03    4.74294       2.66                                 3280700200324 
  1.382E+03    4.86819       2.81                                 3280700200325 
  1.414E+03    4.73558       2.39                                 3280700200326 
  1.447E+03    4.72605       3.04                                 3280700200327 
  1.481E+03    4.87497       2.89                                 3280700200328 
  1.515E+03    4.95092       2.70                                 3280700200329 
  1.551E+03    4.79247       2.59                                 3280700200330 
  1.587E+03    4.94851       2.33                                 3280700200331 
  1.624E+03    4.69921       2.23                                 3280700200332 
  1.661E+03    4.83615       2.18                                 3280700200333 
  1.700E+03    4.83634       2.31                                 3280700200334 
  1.740E+03    4.70362       2.90                                 3280700200335 
  1.780E+03    4.74439       2.63                                 3280700200336 
  1.822E+03    4.68732       2.45                                 3280700200337 
  1.864E+03    4.61214       2.43                                 3280700200338 
  1.908E+03    4.68730       1.91                                 3280700200339 
  1.952E+03    4.87763       3.08                                 3280700200340 
  1.998E+03    5.08447       2.67                                 3280700200341 
  2.044E+03    4.88545       2.89                                 3280700200342 
  2.092E+03    4.80492       2.73                                 3280700200343 
  2.140E+03    4.85765       2.66                                 3280700200344 
  2.190E+03    4.90655       2.73                                 3280700200345 
  2.241E+03    4.74710       2.92                                 3280700200346 
  2.294E+03    4.82106       3.01                                 3280700200347 
  2.347E+03    4.90321       2.71                                 3280700200348 
  2.402E+03    4.67955       2.75                                 3280700200349 
  2.458E+03    5.03867       2.23                                 3280700200350 
  2.515E+03    4.95228       2.49                                 3280700200351 
  2.573E+03    4.73562       3.82                                 3280700200352 
  2.633E+03    4.94012       2.33                                 3280700200353 
  2.695E+03    4.74056       2.88                                 3280700200354 
  2.757E+03    5.09533       2.22                                 3280700200355 
  2.822E+03    4.71668       2.57                                 3280700200356 
  2.887E+03    4.55926       2.57                                 3280700200357 
  2.955E+03    4.73863       3.12                                 3280700200358 
  3.023E+03    4.86119       2.66                                 3280700200359 
  3.094E+03    4.77707       2.80                                 3280700200360 
  3.166E+03    4.84437       2.36                                 3280700200361 
  3.240E+03    5.01675       2.36                                 3280700200362 
  3.315E+03    5.00186       2.84                                 3280700200363 
  3.392E+03    4.97117       2.53                                 3280700200364 
  3.471E+03    4.75849       2.66                                 3280700200365 
  3.552E+03    4.93153       2.17                                 3280700200366 
  3.635E+03    4.75157       2.54                                 3280700200367 
  3.720E+03    4.81220       3.15                                 3280700200368 
  3.806E+03    4.68348       2.88                                 3280700200369 
  3.895E+03    5.00387       2.71                                 3280700200370 
  3.986E+03    4.79602       2.48                                 3280700200371 
  4.078E+03    4.71038       2.73                                 3280700200372 
  4.173E+03    4.77232       2.73                                 3280700200373 
  4.271E+03    4.61641       2.75                                 3280700200374 
  4.370E+03    4.81259       2.63                                 3280700200375 
  4.472E+03    4.81977       2.59                                 3280700200376 
  4.576E+03    4.77180       2.39                                 3280700200377 
  4.683E+03    4.79600       2.75                                 3280700200378 
  4.792E+03    4.78591       2.76                                 3280700200379 
  4.903E+03    4.94077       2.45                                 3280700200380 
  5.018E+03    4.80678       2.97                                 3280700200381 
  5.135E+03    4.86983       2.40                                 3280700200382 
  5.254E+03    4.89664       2.54                                 3280700200383 
  5.377E+03    4.89508       2.17                                 3280700200384 
  5.502E+03    4.72435       2.98                                 3280700200385 
  5.630E+03    4.69491       3.01                                 3280700200386 
  5.761E+03    4.70448       2.77                                 3280700200387 
  5.895E+03    5.04199       2.67                                 3280700200388 
  6.033E+03    4.67172       2.97                                 3280700200389 
  6.173E+03    5.07998       2.63                                 3280700200390 
  6.317E+03    4.80584       2.76                                 3280700200391 
  6.464E+03    4.75238       2.74                                 3280700200392 
  6.615E+03    4.89800       2.62                                 3280700200393 
  6.769E+03    4.97284       2.54                                 3280700200394 
  6.926E+03    4.81453       2.90                                 3280700200395 
  7.088E+03    4.86081       2.52                                 3280700200396 
  7.253E+03    4.96329       2.83                                 3280700200397 
  7.422E+03    4.78083       3.41                                 3280700200398 
  7.595E+03    4.51757       3.60                                 3280700200399 
  7.771E+03    4.89074       3.06                                 3280700200400 
  7.952E+03    4.71737       3.04                                 3280700200401 
  8.138E+03    4.83243       2.97                                 3280700200402 
  8.327E+03    4.80638       2.74                                 3280700200403 
  8.521E+03    4.84918       2.74                                 3280700200404 
  8.720E+03    4.73499       2.63                                 3280700200405 
  8.923E+03    4.68858       2.59                                 3280700200406 
  9.131E+03    4.79750       2.76                                 3280700200407 
  9.343E+03    4.87229       2.78                                 3280700200408 
  9.561E+03    4.90357       2.61                                 3280700200409 
  9.784E+03    4.70457       2.70                                 3280700200410 
  1.001E+04    4.79460       2.89                                 3280700200411 
  1.024E+04    4.83548       2.60                                 3280700200412 
  1.048E+04    4.91492       2.65                                 3280700200413 
  1.073E+04    4.78639       2.62                                 3280700200414 
  1.098E+04    4.89180       2.46                                 3280700200415 
  1.123E+04    5.01359       2.54                                 3280700200416 
  1.149E+04    4.85502       2.58                                 3280700200417 
  1.176E+04    4.57576       3.01                                 3280700200418 
  1.204E+04    5.00990       2.73                                 3280700200419 
  1.232E+04    4.77532       2.68                                 3280700200420 
  1.260E+04    4.83530       2.57                                 3280700200421 
  1.290E+04    4.99124       2.62                                 3280700200422 
  1.320E+04    4.92512       2.62                                 3280700200423 
  1.351E+04    4.85533       2.47                                 3280700200424 
  1.382E+04    4.81684       2.54                                 3280700200425 
  1.414E+04    4.86637       2.47                                 3280700200426 
  1.447E+04    4.94698       2.45                                 3280700200427 
  1.481E+04    4.73519       2.92                                 3280700200428 
  1.515E+04    4.95741       3.01                                 3280700200429 
  1.551E+04    4.54649       3.04                                 3280700200430 
  1.587E+04    4.73246       2.87                                 3280700200431 
  1.624E+04    4.77932       2.92                                 3280700200432 
  1.661E+04    4.82509       2.84                                 3280700200433 
  1.700E+04    5.14952       2.40                                 3280700200434 
  1.740E+04    4.79235       2.60                                 3280700200435 
  1.780E+04    4.80992       2.80                                 3280700200436 
  1.822E+04    5.05595       2.57                                 3280700200437 
  1.864E+04    4.94062       2.48                                 3280700200438 
  1.908E+04    4.92569       2.45                                 3280700200439 
  1.952E+04    4.87239       2.46                                 3280700200440 
  1.998E+04    4.99632       2.44                                 3280700200441 
  2.044E+04    4.81288       2.39                                 3280700200442 
  2.092E+04    4.73926       2.17                                 3280700200443 
  2.140E+04    4.74588       2.31                                 3280700200444 
  2.190E+04    4.76860       2.48                                 3280700200445 
  2.241E+04    4.79225       2.37                                 3280700200446 
  2.294E+04    4.90247       2.08                                 3280700200447 
  2.347E+04    4.71181       2.09                                 3280700200448 
  2.402E+04    4.71390       1.88                                 3280700200449 
  2.458E+04    4.64872       1.90                                 3280700200450 
  2.515E+04    4.88932       1.89                                 3280700200451 
  2.573E+04    4.64823       2.37                                 3280700200452 
  2.633E+04    4.86317       2.89                                 3280700200453 
  2.695E+04    4.75116       3.35                                 3280700200454 
  2.757E+04    4.83948       2.94                                 3280700200455 
  2.822E+04    4.94144       2.55                                 3280700200456 
  2.887E+04    4.79364       2.58                                 3280700200457 
  2.955E+04    4.85632       2.47                                 3280700200458 
  3.023E+04    4.74216       2.54                                 3280700200459 
  3.094E+04    4.96164       2.35                                 3280700200460 
  3.166E+04    4.53596       2.59                                 3280700200461 
  3.240E+04    4.67330       2.78                                 3280700200462 
  3.315E+04    4.78914       2.93                                 3280700200463 
  3.392E+04    5.12365       2.67                                 3280700200464 
  3.471E+04    5.01186       2.77                                 3280700200465 
  3.552E+04    4.59652       2.71                                 3280700200466 
  3.635E+04    4.69507       2.53                                 3280700200467 
  3.720E+04    4.73453       2.53                                 3280700200468 
  3.806E+04    4.84075       2.34                                 3280700200469 
  3.895E+04    4.85691       2.27                                 3280700200470 
  3.986E+04    4.87272       2.15                                 3280700200471 
  4.078E+04    4.87858       2.03                                 3280700200472 
  4.173E+04    4.73188       2.07                                 3280700200473 
  4.271E+04    4.69582       2.18                                 3280700200474 
  4.370E+04    4.82774       2.01                                 3280700200475 
  4.472E+04    4.73481       1.95                                 3280700200476 
  4.576E+04    4.70056       1.93                                 3280700200477 
  4.683E+04    4.64707       2.00                                 3280700200478 
  4.792E+04    4.86609       2.06                                 3280700200479 
  4.903E+04    4.85198       2.02                                 3280700200480 
  5.018E+04    4.64283       2.08                                 3280700200481 
  5.135E+04    4.75806       1.95                                 3280700200482 
  5.254E+04    4.62836       1.94                                 3280700200483 
  5.377E+04    4.82647       1.81                                 3280700200484 
  5.502E+04    4.68985       1.78                                 3280700200485 
  5.630E+04    4.55699       1.81                                 3280700200486 
  5.761E+04    4.70688       1.83                                 3280700200487 
  5.895E+04    4.74329       1.75                                 3280700200488 
  6.033E+04    4.73478       1.73                                 3280700200489 
  6.173E+04    4.57261       1.76                                 3280700200490 
  6.317E+04    4.75896       1.69                                 3280700200491 
  6.464E+04    4.69479       1.66                                 3280700200492 
  6.615E+04    4.64697       1.72                                 3280700200493 
  6.769E+04    4.63023       1.61                                 3280700200494 
  6.926E+04    4.65927       1.82                                 3280700200495 
  7.088E+04    4.76143       1.66                                 3280700200496 
  7.253E+04    4.64500       1.77                                 3280700200497 
  7.422E+04    4.61915       1.79                                 3280700200498 
  7.595E+04    4.78065       1.68                                 3280700200499 
  7.771E+04    4.57321       1.96                                 3280700200500 
  7.952E+04    4.56104       1.86                                 3280700200501 
  8.138E+04    4.51215       2.15                                 3280700200502 
  8.327E+04    4.66563       2.00                                 3280700200503 
  8.521E+04    4.61726       1.96                                 3280700200504 
  8.720E+04    4.66389       1.85                                 3280700200505 
  8.923E+04    4.64530       1.71                                 3280700200506 
  9.131E+04    4.41356       1.80                                 3280700200507 
  9.343E+04    4.64356       1.60                                 3280700200508 
  9.561E+04    4.51428       1.64                                 3280700200509 
  9.784E+04    4.48724       1.59                                 3280700200510 
  1.001E+05    4.52874       1.54                                 3280700200511 
  1.024E+05    4.55842       1.51                                 3280700200512 
  1.048E+05    4.55816       1.52                                 3280700200513 
  1.073E+05    4.54823       1.50                                 3280700200514 
  1.098E+05    4.45210       1.52                                 3280700200515 
  1.123E+05    4.52922       1.46                                 3280700200516 
  1.149E+05    4.45920       1.41                                 3280700200517 
  1.176E+05    4.57073       1.41                                 3280700200518 
  1.204E+05    4.44080       1.41                                 3280700200519 
  1.232E+05    4.52701       1.28                                 3280700200520 
  1.260E+05    4.46201       1.35                                 3280700200521 
  1.290E+05    4.43494       1.44                                 3280700200522 
  1.320E+05    4.51146       1.45                                 3280700200523 
  1.351E+05    4.44816       1.50                                 3280700200524 
  1.382E+05    4.43923       1.57                                 3280700200525 
  1.414E+05    4.51542       1.52                                 3280700200526 
  1.447E+05    4.49673       1.47                                 3280700200527 
  1.481E+05    4.35201       1.46                                 3280700200528 
  1.515E+05    4.45804       1.39                                 3280700200529 
  1.551E+05    4.36758       1.42                                 3280700200530 
  1.587E+05    4.38730       1.35                                 3280700200531 
  1.624E+05    4.38104       1.28                                 3280700200532 
  1.661E+05    4.26825       1.30                                 3280700200533 
  1.700E+05    4.33073       1.30                                 3280700200534 
  1.740E+05    4.39091       1.28                                 3280700200535 
  1.780E+05    4.40035       1.22                                 3280700200536 
  1.822E+05    4.32126       1.31                                 3280700200537 
  1.864E+05    4.18710       1.34                                 3280700200538 
  1.908E+05    4.35899       1.28                                 3280700200539 
  1.952E+05    4.10341       1.32                                 3280700200540 
  1.998E+05    4.28780       1.23                                 3280700200541 
  2.044E+05    4.22401       1.24                                 3280700200542 
  2.092E+05    4.16127       1.22                                 3280700200543 
  2.140E+05    4.07403       1.27                                 3280700200544 
  2.190E+05    4.22424       1.18                                 3280700200545 
  2.241E+05    4.16773       1.16                                 3280700200546 
  2.294E+05    4.10859       1.18                                 3280700200547 
  2.347E+05    4.13808       1.13                                 3280700200548 
  2.402E+05    4.03827       1.15                                 3280700200549 
  2.458E+05    4.01356       1.16                                 3280700200550 
  2.515E+05    4.09661       1.17                                 3280700200551 
  2.573E+05    4.07830       1.13                                 3280700200552 
  2.633E+05    4.06876       1.12                                 3280700200553 
  2.695E+05    4.05126       1.14                                 3280700200554 
  2.757E+05    4.07170       1.10                                 3280700200555 
  2.822E+05    4.00696       1.13                                 3280700200556 
  2.887E+05    4.01508       1.08                                 3280700200557 
  2.955E+05    3.90735       1.11                                 3280700200558 
  3.023E+05    3.91833       1.06                                 3280700200559 
  3.094E+05    3.89124       1.08                                 3280700200560 
  3.166E+05    3.95037       1.05                                 3280700200561 
  3.240E+05    3.94359       1.07                                 3280700200562 
  3.315E+05    3.86352       1.03                                 3280700200563 
  3.392E+05    3.83639       1.02                                 3280700200564 
  3.471E+05    3.77832       1.06                                 3280700200565 
  3.552E+05    3.79876       1.05                                 3280700200566 
  3.635E+05    3.71184       1.07                                 3280700200567 
  3.752E+05    3.65256       1.65                                 3280700200568 
  3.786E+05    3.78299       1.58                                 3280700200569 
  3.820E+05    3.75107       1.63                                 3280700200570 
  3.855E+05    3.70335       1.64                                 3280700200571 
  3.890E+05    3.72072       1.64                                 3280700200572 
  3.926E+05    3.60629       1.67                                 3280700200573 
  3.962E+05    3.61360       1.65                                 3280700200574 
  3.998E+05    3.65846       1.64                                 3280700200575 
  4.036E+05    3.54172       1.67                                 3280700200576 
  4.073E+05    3.69759       1.59                                 3280700200577 
  4.111E+05    3.68708       1.63                                 3280700200578 
  4.150E+05    3.76391       1.59                                 3280700200579 
  4.189E+05    3.79998       1.63                                 3280700200580 
  4.229E+05    3.64232       1.66                                 3280700200581 
  4.270E+05    3.71754       1.64                                 3280700200582 
  4.311E+05    3.68345       1.65                                 3280700200583 
  4.352E+05    3.53959       1.68                                 3280700200584 
  4.394E+05    3.71864       1.60                                 3280700200585 
  4.437E+05    3.57213       1.64                                 3280700200586 
  4.481E+05    3.70327       1.60                                 3280700200587 
  4.525E+05    3.64630       1.58                                 3280700200588 
  4.569E+05    3.52724       1.59                                 3280700200589 
  4.615E+05    3.44078       1.61                                 3280700200590 
  4.661E+05    3.59949       1.54                                 3280700200591 
  4.708E+05    3.61553       1.51                                 3280700200592 
  4.755E+05    3.44665       1.59                                 3280700200593 
  4.803E+05    3.43634       1.57                                 3280700200594 
  4.852E+05    3.46393       1.53                                 3280700200595 
  4.902E+05    3.49809       1.54                                 3280700200596 
  4.952E+05    3.41529       1.52                                 3280700200597 
  5.003E+05    3.47552       1.45                                 3280700200598 
  5.055E+05    3.36316       1.53                                 3280700200599 
  5.108E+05    3.45206       1.48                                 3280700200600 
  5.162E+05    3.51065       1.43                                 3280700200601 
  5.217E+05    3.39548       1.46                                 3280700200602 
  5.272E+05    3.54936       1.43                                 3280700200603 
  5.328E+05    3.63540       1.38                                 3280700200604 
  5.385E+05    3.45255       1.43                                 3280700200605 
  5.444E+05    3.34668       1.45                                 3280700200606 
  5.503E+05    3.38497       1.42                                 3280700200607 
  5.563E+05    3.31898       1.45                                 3280700200608 
  5.624E+05    3.41576       1.40                                 3280700200609 
  5.686E+05    3.37071       1.42                                 3280700200610 
  5.749E+05    3.21705       1.49                                 3280700200611 
  5.813E+05    3.44801       1.39                                 3280700200612 
  5.878E+05    3.23238       1.43                                 3280700200613 
  5.944E+05    3.02849       1.53                                 3280700200614 
  6.012E+05    3.15783       1.45                                 3280700200615 
  6.080E+05    3.24359       1.37                                 3280700200616 
  6.150E+05    3.14048       1.43                                 3280700200617 
  6.221E+05    3.23573       1.38                                 3280700200618 
  6.293E+05    3.14420       1.42                                 3280700200619 
  6.367E+05    3.23724       1.38                                 3280700200620 
  6.441E+05    3.33278       1.36                                 3280700200621 
  6.518E+05    3.07609       1.46                                 3280700200622 
  6.595E+05    3.22935       1.37                                 3280700200623 
  6.674E+05    3.35574       1.29                                 3280700200624 
  6.754E+05    3.22041       1.36                                 3280700200625 
  6.836E+05    3.14798       1.39                                 3280700200626 
  6.919E+05    3.08822       1.37                                 3280700200627 
  7.004E+05    3.15052       1.38                                 3280700200628 
  7.090E+05    3.09104       1.38                                 3280700200629 
  7.178E+05    3.14146       1.36                                 3280700200630 
  7.267E+05    3.06165       1.36                                 3280700200631 
  7.359E+05    3.20301       1.30                                 3280700200632 
  7.452E+05    3.00573       1.39                                 3280700200633 
  7.546E+05    2.77168       1.54                                 3280700200634 
  7.643E+05    3.01439       1.40                                 3280700200635 
  7.741E+05    2.92490       1.40                                 3280700200636 
  7.842E+05    2.98198       1.42                                 3280700200637 
  7.944E+05    2.82488       1.46                                 3280700200638 
  8.048E+05    2.96290       1.40                                 3280700200639 
  8.155E+05    2.82262       1.43                                 3280700200640 
  8.263E+05    2.77056       1.47                                 3280700200641 
  8.374E+05    2.67871       1.51                                 3280700200642 
  8.487E+05    2.90450       1.40                                 3280700200643 
  8.602E+05    2.84974       1.38                                 3280700200644 
  8.720E+05    2.83975       1.42                                 3280700200645 
  8.840E+05    2.69295       1.47                                 3280700200646 
  8.962E+05    2.80352       1.39                                 3280700200647 
  9.087E+05    2.89097       1.35                                 3280700200648 
  9.215E+05    2.72295       1.40                                 3280700200649 
  9.345E+05    2.72006       1.40                                 3280700200650 
  9.479E+05    2.81673       1.31                                 3280700200651 
  9.615E+05    2.77753       1.34                                 3280700200652 
  9.754E+05    2.68655       1.41                                 3280700200653 
  9.896E+05    2.70738       1.41                                 3280700200654 
  1.004E+06    2.68783       1.39                                 3280700200655 
  1.019E+06    2.65239       1.39                                 3280700200656 
  1.034E+06    2.59607       1.40                                 3280700200657 
  1.050E+06    2.48904       1.49                                 3280700200658 
  1.066E+06    2.60311       1.42                                 3280700200659 
  1.082E+06    2.49138       1.47                                 3280700200660 
  1.098E+06    2.59946       1.42                                 3280700200661 
  1.115E+06    2.44632       1.49                                 3280700200662 
  1.133E+06    2.49028       1.45                                 3280700200663 
  1.151E+06    2.43415       1.48                                 3280700200664 
  1.169E+06    2.35149       1.54                                 3280700200665 
  1.187E+06    2.42651       1.51                                 3280700200666 
  1.207E+06    2.49813       1.46                                 3280700200667 
  1.226E+06    2.35277       1.51                                 3280700200668 
  1.246E+06    2.33070       1.54                                 3280700200669 
  1.267E+06    2.40913       1.48                                 3280700200670 
  1.288E+06    2.26332       1.54                                 3280700200671 
  1.309E+06    2.27978       1.55                                 3280700200672 
  1.332E+06    2.34415       1.53                                 3280700200673 
  1.354E+06    2.24807       1.58                                 3280700200674 
  1.378E+06    2.26656       1.53                                 3280700200675 
  1.401E+06    2.08794       1.65                                 3280700200676 
  1.426E+06    2.15893       1.58                                 3280700200677 
  1.451E+06    1.99832       1.77                                 3280700200678 
  1.477E+06    2.08747       1.67                                 3280700200679 
  1.504E+06    1.95289       1.77                                 3280700200680 
  1.531E+06    2.16076       1.63                                 3280700200681 
  1.559E+06    2.05487       1.70                                 3280700200682 
  1.588E+06    1.90162       1.78                                 3280700200683 
  1.617E+06    1.95267       1.76                                 3280700200684 
  1.648E+06    1.79466       1.91                                 3280700200685 
  1.679E+06    2.06105       1.67                                 3280700200686 
  1.711E+06    1.95843       1.75                                 3280700200687 
  1.744E+06    2.07639       1.62                                 3280700200688 
  1.779E+06    2.02153       1.67                                 3280700200689 
  1.814E+06    2.04408       1.61                                 3280700200690 
  1.850E+06    1.76905       1.85                                 3280700200691 
  1.887E+06    1.80574       1.84                                 3280700200692 
  1.926E+06    1.93685       1.76                                 3280700200693 
  1.965E+06    1.87031       1.75                                 3280700200694 
  2.006E+06    1.91433       1.70                                 3280700200695 
  2.048E+06    1.89398       1.76                                 3280700200696 
  2.092E+06    2.19201       1.54                                 3280700200697 
  2.137E+06    1.65315       1.99                                 3280700200698 
  2.183E+06    1.61739       2.03                                 3280700200699 
  2.231E+06    1.57423       2.10                                 3280700200700 
  2.280E+06    1.72719       1.89                                 3280700200701 
  2.332E+06    1.53983       2.11                                 3280700200702 
  2.385E+06    1.53545       2.06                                 3280700200703 
  2.439E+06    1.53602       2.14                                 3280700200704 
  2.496E+06    1.45772       2.27                                 3280700200705 
  2.554E+06    1.68202       1.97                                 3280700200706 
  2.615E+06    1.83251       1.83                                 3280700200707 
  2.678E+06    1.96117       1.68                                 3280700200708 
  2.743E+06    1.99718       1.67                                 3280700200709 
  2.811E+06    2.25322       1.45                                 3280700200710 
  2.881E+06    2.51687       1.38                                 3280700200711 
  2.954E+06    2.44960       1.40                                 3280700200712 
  3.030E+06    1.70873       1.90                                 3280700200713 
  3.108E+06    1.66265       1.88                                 3280700200714 
  3.190E+06    2.08966       1.55                                 3280700200715 
  3.275E+06    2.18691       1.51                                 3280700200716 
  3.363E+06    2.33680       1.47                                 3280700200717 
  3.455E+06    2.49647       1.39                                 3280700200718 
  3.551E+06    2.60657       1.36                                 3280700200719 
  3.651E+06    2.60374       1.40                                 3280700200720 
  3.755E+06    2.37840       1.45                                 3280700200721 
  3.864E+06    2.08526       1.66                                 3280700200722 
  3.977E+06    1.84009       1.77                                 3280700200723 
  4.096E+06    1.90204       1.75                                 3280700200724 
  4.220E+06    2.01145       1.68                                 3280700200725 
  4.350E+06    2.15846       1.57                                 3280700200726 
  4.485E+06    1.88698       1.72                                 3280700200727 
  4.628E+06    1.55529       2.08                                 3280700200728 
  4.777E+06    1.43034       2.20                                 3280700200729 
  4.934E+06    1.29987       2.36                                 3280700200730 
  5.098E+06    1.28751       2.43                                 3280700200731 
  5.271E+06    1.39218       2.22                                 3280700200732 
  5.453E+06    1.38703       2.27                                 3280700200733 
  5.644E+06    1.18063       2.65                                 3280700200734 
  5.845E+06    1.23335       2.49                                 3280700200735 
  6.058E+06    1.31917       2.28                                 3280700200736 
  6.283E+06    1.43644       2.09                                 3280700200737 
  6.520E+06    1.07352       2.59                                 3280700200738 
  6.771E+06    0.84682       3.08                                 3280700200739 
  7.037E+06    0.95027       2.75                                 3280700200740 
  7.319E+06    1.41001       1.88                                 3280700200741 
  7.618E+06    1.84416       1.49                                 3280700200742 
  7.936E+06    1.90098       1.44                                 3280700200743 
  8.275E+06    1.36978       1.92                                 3280700200744 
  8.636E+06    1.12853       2.33                                 3280700200745 
  9.021E+06    1.21491       2.20                                 3280700200746 
  9.432E+06    1.32033       2.02                                 3280700200747 
  9.873E+06    1.32639       2.04                                 3280700200748 
  1.034E+07    1.32416       2.10                                 3280700200749 
  1.085E+07    1.29851       2.13                                 3280700200750 
  1.140E+07    1.42009       1.99                                 3280700200751 
  1.199E+07    1.49896       1.92                                 3280700200752 
  1.262E+07    1.52603       1.90                                 3280700200753 
  1.331E+07    1.61197       1.76                                 3280700200754 
  1.405E+07    1.43515       1.88                                 3280700200755 
  1.486E+07    1.55028       1.76                                 3280700200756 
  1.575E+07    1.53741       1.86                                 3280700200757 
  1.671E+07    1.46807       1.93                                 3280700200758 
  1.777E+07    1.46543       1.97                                 3280700200759 
  1.893E+07    1.63193       1.91                                 3280700200760 
  2.021E+07    1.59899       1.95                                 3280700200761 
ENDDATA            753          0                                 3280700200762 
ENDSUBENT          761          0                                 3280700299999 
SUBENT        32807003   20241011                             32153280700300001 
BIB                  3          3                                 3280700300002 
REACTION   (6-C-0(N,TOT),,SIG)                                    3280700300003 
COMMENT    The measured results with 238U cells                   3280700300004 
STATUS     (COREL,32807002) Data measured with 235U cells         3280700300005 
ENDBIB               3          0                                 3280700300006 
NOCOMMON             0          0                                 3280700300007 
DATA                 3        107                                 3280700300008 
EN         DATA       ERR-S                                       3280700300009 
EV         B          PER-CENT                                    3280700300010 
  1.004E+06    0.81716      39.12                                 3280700300011 
  1.019E+06    3.87102       8.52                                 3280700300012 
  1.034E+06    1.75643      18.43                                 3280700300013 
  1.050E+06    2.34046      12.78                                 3280700300014 
  1.066E+06    1.35984      22.01                                 3280700300015 
  1.082E+06    1.81292      15.81                                 3280700300016 
  1.098E+06    2.40765      10.25                                 3280700300017 
  1.115E+06    2.38148       9.92                                 3280700300018 
  1.133E+06    2.18009      10.65                                 3280700300019 
  1.151E+06    1.57440      12.63                                 3280700300020 
  1.169E+06    3.51671       5.71                                 3280700300021 
  1.187E+06    2.31432       8.65                                 3280700300022 
  1.207E+06    2.58262       7.70                                 3280700300023 
  1.226E+06    2.65520       7.49                                 3280700300024 
  1.246E+06    2.62486       7.05                                 3280700300025 
  1.267E+06    2.38860       7.21                                 3280700300026 
  1.288E+06    2.46834       6.62                                 3280700300027 
  1.309E+06    2.11453       7.09                                 3280700300028 
  1.332E+06    2.65049       5.00                                 3280700300029 
  1.354E+06    2.91034       4.29                                 3280700300030 
  1.378E+06    2.00531       5.22                                 3280700300031 
  1.401E+06    1.99004       4.72                                 3280700300032 
  1.426E+06    1.92769       4.30                                 3280700300033 
  1.451E+06    2.26709       3.33                                 3280700300034 
  1.477E+06    1.83441       3.98                                 3280700300035 
  1.504E+06    2.18186       3.21                                 3280700300036 
  1.531E+06    2.07938       3.19                                 3280700300037 
  1.559E+06    1.96006       3.27                                 3280700300038 
  1.588E+06    1.87459       3.42                                 3280700300039 
  1.617E+06    1.68252       3.66                                 3280700300040 
  1.648E+06    2.05513       3.07                                 3280700300041 
  1.679E+06    2.01323       3.01                                 3280700300042 
  1.711E+06    2.07270       2.87                                 3280700300043 
  1.744E+06    1.74813       3.28                                 3280700300044 
  1.779E+06    2.05273       2.78                                 3280700300045 
  1.814E+06    1.88532       2.89                                 3280700300046 
  1.850E+06    1.69697       3.18                                 3280700300047 
  1.887E+06    2.01088       2.72                                 3280700300048 
  1.926E+06    1.85318       2.92                                 3280700300049 
  1.965E+06    2.06324       2.61                                 3280700300050 
  2.006E+06    1.78993       2.92                                 3280700300051 
  2.048E+06    2.11274       2.56                                 3280700300052 
  2.092E+06    2.16044       2.55                                 3280700300053 
  2.137E+06    1.90598       2.83                                 3280700300054 
  2.183E+06    1.57405       3.39                                 3280700300055 
  2.231E+06    1.70488       3.09                                 3280700300056 
  2.280E+06    1.78977       2.95                                 3280700300057 
  2.332E+06    1.45076       3.56                                 3280700300058 
  2.385E+06    1.63854       3.15                                 3280700300059 
  2.439E+06    1.60959       3.24                                 3280700300060 
  2.496E+06    1.62852       3.31                                 3280700300061 
  2.554E+06    1.57418       3.35                                 3280700300062 
  2.615E+06    1.84077       2.85                                 3280700300063 
  2.678E+06    1.74829       2.95                                 3280700300064 
  2.743E+06    2.07512       2.51                                 3280700300065 
  2.811E+06    2.08122       2.49                                 3280700300066 
  2.881E+06    2.44536       2.25                                 3280700300067 
  2.954E+06    2.39032       2.25                                 3280700300068 
  3.030E+06    1.53571       3.31                                 3280700300069 
  3.108E+06    1.71526       2.92                                 3280700300070 
  3.190E+06    1.98989       2.52                                 3280700300071 
  3.275E+06    2.34995       2.21                                 3280700300072 
  3.363E+06    2.46064       2.14                                 3280700300073 
  3.455E+06    2.79941       1.99                                 3280700300074 
  3.551E+06    2.59370       2.12                                 3280700300075 
  3.651E+06    2.70750       2.06                                 3280700300076 
  3.755E+06    2.42598       2.14                                 3280700300077 
  3.864E+06    2.25431       2.30                                 3280700300078 
  3.977E+06    2.10415       2.41                                 3280700300079 
  4.096E+06    1.78115       2.83                                 3280700300080 
  4.220E+06    2.22297       2.26                                 3280700300081 
  4.350E+06    1.97020       2.51                                 3280700300082 
  4.485E+06    1.76880       2.77                                 3280700300083 
  4.628E+06    1.38862       3.38                                 3280700300084 
  4.777E+06    1.54510       2.93                                 3280700300085 
  4.934E+06    1.41042       3.10                                 3280700300086 
  5.098E+06    1.29674       3.49                                 3280700300087 
  5.271E+06    1.22968       3.63                                 3280700300088 
  5.453E+06    1.24507       3.63                                 3280700300089 
  5.644E+06    1.33572       3.31                                 3280700300090 
  5.845E+06    0.97935       4.46                                 3280700300091 
  6.058E+06    1.37229       3.11                                 3280700300092 
  6.283E+06    1.50526       2.70                                 3280700300093 
  6.520E+06    1.07834       3.46                                 3280700300094 
  6.771E+06    0.63487       5.56                                 3280700300095 
  7.037E+06    0.85767       4.18                                 3280700300096 
  7.319E+06    1.42973       2.50                                 3280700300097 
  7.618E+06    2.09089       1.82                                 3280700300098 
  7.936E+06    2.02618       1.88                                 3280700300099 
  8.275E+06    1.42518       2.53                                 3280700300100 
  8.636E+06    1.33986       2.69                                 3280700300101 
  9.021E+06    1.29908       2.79                                 3280700300102 
  9.432E+06    1.28704       2.86                                 3280700300103 
  9.873E+06    1.21403       3.07                                 3280700300104 
  1.034E+07    1.40246       2.71                                 3280700300105 
  1.085E+07    1.41755       2.60                                 3280700300106 
  1.140E+07    1.46480       2.66                                 3280700300107 
  1.199E+07    1.37433       2.89                                 3280700300108 
  1.262E+07    1.39507       2.85                                 3280700300109 
  1.331E+07    1.70335       2.37                                 3280700300110 
  1.405E+07    1.29863       2.94                                 3280700300111 
  1.486E+07    1.39492       2.69                                 3280700300112 
  1.575E+07    1.54178       2.46                                 3280700300113 
  1.671E+07    1.53544       2.44                                 3280700300114 
  1.777E+07    1.48298       2.53                                 3280700300115 
  1.893E+07    1.54230       2.69                                 3280700300116 
  2.021E+07    1.51775       2.52                                 3280700300117 
ENDDATA            109          0                                 3280700300118 
ENDSUBENT          117          0                                 3280700399999 
ENDENTRY             3          0                                 3280799999999 
