ENTRY            40598   19980317                             00004059800000001 
SUBENT        40598001   19980317                             00004059800100001 
BIB                 14         33                                 4059800100002 
INSTITUTE  (4ZZZDUB)                                              4059800100003 
REFERENCE  (J,YF,27,(1),18,78)                                    4059800100004 
           (C,77KIEV,2,305,7704)                                  4059800100005 
           (R,JINR-P3-9815,7606)                                  4059800100006 
           (R,JINR-P3-8653,7503)                                  4059800100007 
           (R,JINR-P3-5875,7107)                                  4059800100008 
AUTHOR     (A.ANTONOV,N.BALABANOV,YU.M.GLEDENOV,PAK-KHON-CHER,    4059800100009 
           YU.P.POPOV,V.G.SEMYONOV,M.F.FLOREK)                    4059800100010 
TITLE       REACTION (N,ALPHA) AT RESONANCE ENERGIES ON MO, ZN,   4059800100011 
            RU, PD, SM, YB  ISOTOPES                              4059800100012 
FACILITY   (LINAC) ELECTRON LINEAR ACCELERATOR AND                4059800100013 
           (REAC)  REACTOR IBR-30 AS A BREEDER                    4059800100014 
INC-SOURCE (REAC)                                                 4059800100015 
SAMPLE      MONITOR SAMPLE IS SAMARIUM OXIDE,THICKNESS 5.2 MILLI- 4059800100016 
            GRAM/CM2, SM-147 CONTENT 96.4 PERCENT, AREA 850. CM2  4059800100017 
METHOD     (TOF)                                                  4059800100018 
DETECTOR   (TELES)  MULTISECTIONAL BATTERY OF PROPORTIONAL        4059800100019 
                    COUNTERS                                      4059800100020 
PART-DET   (A)                                                    4059800100021 
MONITOR    ((MONIT1)62-SM-147(N,0),,EN)                           4059800100022 
           ((MONIT2)62-SM-147(N,A),,WID)                          4059800100023 
           ((MONIT3)62-SM-147(N,EL),,WID,,2G)                     4059800100024 
           ((MONIT4)62-SM-147(N,0),,EN)                           4059800100025 
           ((MONIT5)62-SM-147(N,A),,WID)                          4059800100026 
           ((MONIT6)62-SM-147(N,EL),,WID,,2G)                     4059800100027 
MONIT-REF  (,BALABANOV+,J,NP/A,261,35,76)                         4059800100028 
ERR-ANALYS (DATA-ERR) CONTAIN STATISTICAL ERRORS AND THOSE        4059800100029 
                       WHICH ARISE FROM UNCERTAINTY OF NUCLEAR    4059800100030 
                       DATA USED BY THE ANALYSIS                  4059800100031 
HISTORY    (790531C)  COMPILED AT THE CENTRE                      4059800100032 
           (851004U)                                              4059800100033 
           (860417U)  MONITOR CODES CORRECTED BY NNDC             4059800100034 
           (980317U)  FINAL CORRECTION MADE AT THE CENTER - CJD   4059800100035 
ENDBIB              33          0                                 4059800100036 
COMMON              10          6                                 4059800100037 
MONIT1     MONIT2     MONIT2-ERR MONIT3     MONIT3-ERR MONIT4     4059800100038 
MONIT5     MONIT5-ERR MONIT6     MONIT6-ERR                       4059800100039 
EV         EV         EV         EV         EV         EV         4059800100040 
EV         EV         EV         EV                               4059800100041 
 3.4200E+00 1.8000E-06 2.0000E-07 1.1500E-03 3.0000E-05 8.3700E+014059800100042 
 2.5000E-06 3.0000E-07 6.6200E-02 3.0000E-03                      4059800100043 
ENDCOMMON            6          0                                 4059800100044 
ENDSUBENT           43          0                                 4059800199999 
SUBENT        40598002   19980317                             00004059800200001 
BIB                  5          7                                 4059800200002 
REACTION   (30-ZN-64(N,A),,WID)                                   4059800200003 
SAMPLE     .OXIDE, 1.88MILLIGRAM/CM2, ZN-64 CONTENT 99.3 PERCENT  4059800200004 
            AREA  3600. CM2                                       4059800200005 
STATUS     (COREL,41281002)                                       4059800200006 
COMMENT     RESOLUTION  45. NSEC/M, MEASUREMENT TIME 230. HR,     4059800200007 
            POWER LEVEL OF THE REACTOR 10. KW                     4059800200008 
HISTORY    (980317U) CORRELATION GIVEN TO EARLIER DATA            4059800200009 
ENDBIB               7          0                                 4059800200010 
NOCOMMON             0          0                                 4059800200011 
DATA                 3          1                                 4059800200012 
EN-RES     DATA       DATA-ERR                                    4059800200013 
EV         EV         EV                                          4059800200014 
 2.8180E+02 1.2000E-05 5.0000E-06                                 4059800200015 
ENDDATA              3          0                                 4059800200016 
ENDSUBENT           15          0                                 4059800299999 
SUBENT        40598003   19980317                             00004059800300001 
BIB                  6         11                                 4059800300002 
REACTION  1(30-ZN-67(N,0),,EN)                                    4059800300003 
          2(30-ZN-67(N,A),,WID)                                   4059800300004 
SAMPLE      OXIDE ZN-O, THICKNESS OF THE COMPOUND 3.75 MILLIGRAM/ 4059800300005 
            CM2, ZN-67 CONTENT 87.9 PERCENT, AREA 1800.AND        4059800300006 
            3600. CM2                                             4059800300007 
COMMENT     RESOLUTION 45. AND 17. NSEC/M, MEASUREMENT TIME 170.  4059800300008 
            AND 60. HR  FOR 1800. AND 3600 CM2 AREA OF SAMPLE     4059800300009 
            REACTOR POWER LEVEL  10. KW, DATA AT 2246.IS DATA-MAX 4059800300010 
FLAG       (1.) LEVEL DETERMINED WITH UNCERTAINTY                 4059800300011 
STATUS     (COREL,41281003)                                       4059800300012 
HISTORY    (980317U) CORRELATION GIVEN TO EARLIER DATA            4059800300013 
ENDBIB              11          0                                 4059800300014 
NOCOMMON             0          0                                 4059800300015 
DATA                 4          5                                 4059800300016 
DATA      1DATA      2DATA-ERR  2FLAG                             4059800300017 
EV         EV         EV         NO-DIM                           4059800300018 
 7.5000E+02 4.4000E-05 9.0000E-06                                 4059800300019 
 1.7800E+03 3.4000E-05 1.1000E-05 1.0000E+00                      4059800300020 
 2.0700E+03 1.3700E-04 3.0000E-05                                 4059800300021 
 2.4760E+03 1.1000E-04 3.0000E-05                                 4059800300022 
 3.7930E+03 2.4700E-03 4.0000E-04                                 4059800300023 
ENDDATA              7          0                                 4059800300024 
ENDSUBENT           23          0                                 4059800399999 
SUBENT        40598004   19851004                             00004059800400001 
BIB                  4          6                                 4059800400002 
REACTION   (42-MO-95(N,A),,WID)                                   4059800400003 
SAMPLE      OXIDE MO-O3, COMPOUNT THICKNESS 5.38 MILLIGRAM/CM2,   4059800400004 
            MO-95 CONTENT 95.5 PERCENT, SAMPLE AREA 7200. CM2     4059800400005 
COMMENT     RESOLUTION 35. NSEC/M, MEASUREMENT TIME 270.HR,       4059800400006 
            REACTOR POWER LEVEL 3.5 KW                            4059800400007 
FLAG       (1.) ENERGY LEVEL KNOWN WITH UNCERTAINTY               4059800400008 
ENDBIB               6          0                                 4059800400009 
NOCOMMON             0          0                                 4059800400010 
DATA                 5          7                                 4059800400011 
EN-RES     DATA       DATA-ERR   DATA-MIN   FLAG                  4059800400012 
EV         EV         EV         EV         NO-DIM                4059800400013 
 4.4700E+01 2.5000E-08 1.0000E-08                                 4059800400014 
 4.6970E+02 1.2200E-04 5.0000E-06                                 4059800400015 
 5.5440E+02 5.3000E-06 2.0000E-06                                 4059800400016 
 8.9840E+02 1.6600E-04 5.0000E-06                                 4059800400017 
 9.8070E+02 4.6000E-05 1.7000E-05                                 4059800400018 
 1.1446E+03 3.8000E-05 1.5000E-05                                 4059800400019 
 1.9506E+03 2.3000E-05 1.4000E-05                                 4059800400020 
ENDDATA              9          0                                 4059800400021 
ENDSUBENT           20          0                                 4059800499999 
SUBENT        40598005   19851004                             00004059800500001 
BIB                  4          6                                 4059800500002 
REACTION   (44-RU-99(N,A),,WID)                                   4059800500003 
SAMPLE      METALLIC, 2.70 MILLIGRAM/CM2, RU-99 CONTENT 94.6 PERC.4059800500004 
            AREA  900. CM2                                        4059800500005 
COMMENT     RESOLUTION  45. AND 90. NSEC/M, MEASUREMENT TIME      4059800500006 
            190. AND 90. HR, REACTOR POWER LEVEL 10. AND 5. KW    4059800500007 
FLAG       (1.)  ALPHA-WIDTH KNOWN UNCERTAINLY                    4059800500008 
ENDBIB               6          0                                 4059800500009 
NOCOMMON             0          0                                 4059800500010 
DATA                 5          7                                 4059800500011 
EN-RES     DATA       DATA-ERR   DATA-MAX   FLAG                  4059800500012 
EV         EV         EV         EV         NO-DIM                4059800500013 
 1.0050E+01 1.8000E-07 6.0000E-08                                 4059800500014 
 2.5220E+01 7.0000E-08 3.0000E-08                                 4059800500015 
 5.7110E+01                       3.0000E-07                      4059800500016 
 8.1620E+01 5.8000E-06 1.3000E-06                                 4059800500017 
 1.0409E+02            9.4000E-07 1.3000E-07                      4059800500018 
 1.9886E+02 5.0000E-06 3.0000E-06                                 4059800500019 
 3.4217E+02 2.4000E-06                       1.0000E+00           4059800500020 
ENDDATA              9          0                                 4059800500021 
ENDSUBENT           20          0                                 4059800599999 
SUBENT        40598006   19851004                             00004059800600001 
BIB                  4          6                                 4059800600002 
REACTION   (44-RU-101(N,A),,WID)                                  4059800600003 
SAMPLE      METALLIC, 2.20 MILLIGRAM/CM2, RU-101 CONTENT 93.5 PC  4059800600004 
            AREA 1800 CM2                                         4059800600005 
COMMENT     RESOLUTION 45. AND 120. NSEC/M, MEASUREMENT TIME 80.  4059800600006 
            AND 60. HR, REACTOR POWER LEVEL 10. KW                4059800600007 
FLAG       (1.) AVERAGED ON 336.8 AND 346.2 EV LEVELS             4059800600008 
ENDBIB               6          0                                 4059800600009 
NOCOMMON             0          0                                 4059800600010 
DATA                 4          2                                 4059800600011 
EN-RES     DATA       DATA-ERR   FLAG                             4059800600012 
EV         EV         EV         NO-DIM                           4059800600013 
 6.6820E+01 3.0000E-07 1.0000E-07                                 4059800600014 
 3.4000E+02 8.0000E-08            1.0000E+00                      4059800600015 
ENDDATA              4          0                                 4059800600016 
ENDSUBENT           15          0                                 4059800699999 
SUBENT        40598007   19851004                             00004059800700001 
BIB                  3          5                                 4059800700002 
REACTION   (46-PD-105(N,A),,WID)                                  4059800700003 
SAMPLE      METALLIC, NATURAL ISOTOPE MIXTURE, 12.1 MILLIGRAM/CM2 4059800700004 
            AREA 1800. CM2                                        4059800700005 
COMMENT     RESOLUTION 120. NSEC/M, MEASUREMENT TIME 180. MR,     4059800700006 
            REACTOR POWER LEVEL  6. KW                            4059800700007 
ENDBIB               5          0                                 4059800700008 
NOCOMMON             0          0                                 4059800700009 
DATA                 4          8                                 4059800700010 
EN-RES     DATA       DATA-ERR   DATA-MAX                         4059800700011 
EV         EV         EV         EV                               4059800700012 
 1.1800E+01                       3.3000E-07                      4059800700013 
 1.3200E+01 1.0000E-01 2.0000E-08                                 4059800700014 
 2.5300E+01                       7.0000E-08                      4059800700015 
 3.0200E+01                       8.0000E-07                      4059800700016 
 3.8400E+01                       9.1000E-07                      4059800700017 
 5.5700E+01                       8.0000E-08                      4059800700018 
 6.8900E+01                       1.6000E-07                      4059800700019 
 7.8500E+01                       1.0000E-07                      4059800700020 
ENDDATA             10          0                                 4059800700021 
ENDSUBENT           20          0                                 4059800799999 
SUBENT        40598008   19851004                             00004059800800001 
BIB                  4          7                                 4059800800002 
REACTION   (62-SM-149(N,A),,WID)                                  4059800800003 
SAMPLE      OXIDE SM2-O3, COMPOUND THICKNESS 10.5 MILLIGRAM/CM2,  4059800800004 
            SM-149 CONTENT 96.9 PERCENT, AREA 850 CM2             4059800800005 
COMMENT     RESOLUTION IS 0.05 MICROSEC/M,                        4059800800006 
            MEASUREMENT TIME  290.  HR                            4059800800007 
FLAG       (1.)  DATUM COMMON FOR A GIVEN AND FOLLOWING ENERGY    4059800800008 
                LEVEL                                             4059800800009 
ENDBIB               7          0                                 4059800800010 
NOCOMMON             0          0                                 4059800800011 
DATA                 5         33                                 4059800800012 
EN-RES     DATA       DATA-ERR   DATA-MAX   FLAG                  4059800800013 
EV         EV         EV         EV         NO-DIM                4059800800014 
 6.4800E+00 5.9000E-08 1.5000E-08                                 4059800800015 
 8.9000E+00 1.8000E-08 9.0000E-09                                 4059800800016 
 9.2000E+00 9.5000E-08 4.0000E-08                                 4059800800017 
 1.2200E+01 1.2000E-07 3.0000E-08                                 4059800800018 
 1.4900E+01 4.0000E-08 1.0000E-08                                 4059800800019 
 1.5800E+01 1.8000E-07                                            4059800800020 
 1.7100E+01 2.4000E-08                                            4059800800021 
 2.3200E+01                       7.0000E-08                      4059800800022 
 2.5200E+01 1.1000E-07 2.0000E-08                                 4059800800023 
 2.6100E+01 3.0000E-08 1.5000E-08                                 4059800800024 
 2.7900E+01 7.0000E-07 3.0000E-07                                 4059800800025 
 2.9900E+01 2.1000E-07 2.0000E-08                                 4059800800026 
 3.0700E+01 2.0000E-08 1.0000E-08                                 4059800800027 
 3.3900E+01 1.7000E-08                                            4059800800028 
 4.0100E+01 3.8000E-07 3.0000E-08                                 4059800800029 
 4.1300E+01 3.7000E-07 3.0000E-08                                 4059800800030 
 4.4300E+01 3.0000E-08 1.0000E-08                                 4059800800031 
 4.5100E+01 5.0000E-08 2.0000E-08                                 4059800800032 
 4.9500E+01 1.1000E-07 2.0000E-08                                 4059800800033 
 5.0500E+01 3.2000E-07 1.6000E-07                                 4059800800034 
 5.1600E+01 2.8000E-08 1.5000E-08                                 4059800800035 
 5.7400E+01 3.0000E-08 2.0000E-08                                 4059800800036 
 5.9700E+01 1.0000E-08                                            4059800800037 
 6.0900E+01                       3.0000E-07                      4059800800038 
 6.2100E+01                       4.0000E-08                      4059800800039 
 6.4700E+01 6.0000E-08 2.0000E-08                                 4059800800040 
 6.8300E+01 4.0000E-08 3.0000E-08                                 4059800800041 
 7.0800E+01 2.0000E-08 1.0000E-08                                 4059800800042 
 7.2200E+01 1.8000E-08 8.0000E-09            1.0000E+00           4059800800043 
 7.4600E+01 5.0000E-08 2.0000E-08            1.0000E+00           4059800800044 
 8.3800E+01 1.1000E-07 6.0000E-08                                 4059800800045 
 8.7700E+01 8.0000E-08                                            4059800800046 
 9.0600E+01 4.0000E-08 2.0000E-08            1.0000E+00           4059800800047 
ENDDATA             35          0                                 4059800800048 
ENDSUBENT           47          0                                 4059800899999 
SUBENT        40598009   19851004                             00004059800900001 
BIB                  3          4                                 4059800900002 
REACTION   (70-YB-171(N,A),,WID)                                  4059800900003 
SAMPLE      OXIDE YB2-O3, COMPOUND THICKNESS 7.9 MILLIGRAM/CM2,   4059800900004 
            YB-171 CONTENT 90.2 PERCENT,AREA 850.CM2              4059800900005 
COMMENT     RESOLUTION 0.13 MICROSEC/M, MEASUREMENT TIME 410.HR   4059800900006 
ENDBIB               4          0                                 4059800900007 
NOCOMMON             0          0                                 4059800900008 
DATA                 4          8                                 4059800900009 
EN-RES     DATA       DATA-ERR   DATA-MAX                         4059800900010 
EV         EV         EV         EV                               4059800900011 
 7.9100E+00 3.6000E-09 5.0000E-10                                 4059800900012 
 1.3040E+01                       3.0000E-09                      4059800900013 
 2.1720E+01                       8.1000E-08                      4059800900014 
 2.8170E+01 2.5000E-08 5.0000E-09                                 4059800900015 
 3.4520E+01 7.0000E-09 3.0000E-09                                 4059800900016 
 4.1420E+01                       1.8000E-08                      4059800900017 
 4.6380E+01                       1.4200E-07                      4059800900018 
 5.2870E+01 5.2000E-08 1.5000E-08                                 4059800900019 
ENDDATA             10          0                                 4059800900020 
ENDSUBENT           19          0                                 4059800999999 
SUBENT        40598010   19980317                             00004059801000001 
BIB                  5          7                                 4059801000002 
REACTION   (72-HF-177(N,A),,WID)                                  4059801000003 
SAMPLE      OXIDE HF-O2, HF-177 CONTENT 84.6 PERCENT, AREA 2400.  4059801000004 
            CM2, WEIGHT 8.35 GRAM                                 4059801000005 
COMMENT     ND-143 WAS USED FOR CALIBRATION INSTED OF SM-147      4059801000006 
            RESOLUTION 0.7 MICROSEC/M, MEASUREMENT TIME 182.HR    4059801000007 
STATUS     (COREL,41281004)                                       4059801000008 
HISTORY    (980317U) CORRELATION GIVEN TO EARLIER DATA            4059801000009 
ENDBIB               7          0                                 4059801000010 
NOCOMMON             0          0                                 4059801000011 
DATA                 3          2                                 4059801000012 
EN-RES     DATA       DATA-ERR                                    4059801000013 
EV         EV         EV                                          4059801000014 
 6.5700E+00 1.5000E-09 9.0000E-10                                 4059801000015 
 8.8700E+00 4.2000E-09 0.0000E+00                                 4059801000016 
ENDDATA              4          0                                 4059801000017 
ENDSUBENT           16          0                                 4059801099999 
SUBENT        40598011   19980317                             00004059801100001 
BIB                  4          6                                 4059801100002 
REACTION   (30-ZN-67(N,A),,WID)                                   4059801100003 
SAMPLE       OXIDE ZN-O, THICKNESS OF THE COMPOUND IS 3.75 MILLI- 4059801100004 
             GRAM/CM2, ZN-67 CONTENT IS 87.9 PC, AREA IS 1800     4059801100005 
             AND 3600 CM2                                         4059801100006 
STATUS     (COREL,41281003)                                       4059801100007 
HISTORY    (980317U) CORRELATION GIVEN TO EARLIER DATA            4059801100008 
ENDBIB               6          0                                 4059801100009 
NOCOMMON             0          0                                 4059801100010 
DATA                 3          3                                 4059801100011 
EN-RES     DATA       DATA-ERR                                    4059801100012 
EV         EV         EV                                          4059801100013 
 2.2300E+02 6.0000E-06 8.0000E-07                                 4059801100014 
 4.4800E+02 5.0000E-06 2.5000E-06                                 4059801100015 
 1.5480E+03 6.8000E-04 3.0000E-04                                 4059801100016 
ENDDATA              5          0                                 4059801100017 
ENDSUBENT           16          0                                 4059801199999 
ENDENTRY            11          0                                 4059899999999 
