ENTRY            41012   20090324                             41464101200000001 
SUBENT        41012001   20090324                             41464101200100001 
BIB                 13         36                                 4101200100002 
INSTITUTE  (4UKRIJI)                                              4101200100003 
REFERENCE  (C,87KIEV,2,283,198709)                                4101200100004 
AUTHOR     (P.N.Vorona,V.P.Vertebnyy,A.I.Kal'chenko, V.G.Krivenko,4101200100005 
           L.E.Chervonnaya, V.Yu.Chervyakov)                      4101200100006 
TITLE       Neutron cross-sections for U-236 at thermal  and      4101200100007 
            resonance energies                                    4101200100008 
FACILITY   (REAC) Reactor WWR-M                                   4101200100009 
SAMPLE      Metallic and uranium oxide, U-236 content is 99.845 %,4101200100010 
            U-235 - 0.047 %, U-238 - 0.107 %.                     4101200100011 
            1) 9 metallic disks have mass of 1.318 g ,thickness   4101200100012 
               4.167E-19 nucl/cm**2 .                             4101200100013 
            2) U3-O8 sample has mass 2.412 g and thickness        4101200100014 
             1.6852E-18 nucl/cm**2,                               4101200100015 
             size 2.076 x 14.875 x 13.940 mm**3.                  4101200100016 
            3) U metal disk has mass 0.141 gram and thickness     4101200100017 
               4.44E-20 nucl/cm**2 .                              4101200100018 
            1) and 2) - for c-s measurement in neutron energy     4101200100019 
             range 0.0253 - 4. eV, time resolution 1.0 microsec/m.4101200100020 
            2) - for resonance measurement in energy range        4101200100021 
              4.4 eV - 30. keV, time resolution 0.055 microsec/m. 4101200100022 
            3) - for resonance measurement in energy range        4101200100023 
                 5.2 - 5.8 eV, time resolution 0.11 microsec/m .  4101200100024 
METHOD     (TOF) Transmission Measurements                        4101200100025 
           (TRN)                                                  4101200100026 
MONITOR     Absolute measurements                                 4101200100027 
ASSUMED    (ASSUM,8-O-16(N,TOT),,SIG)  From REL-REF.              4101200100028 
            Oxygen total c-s was assumed to be constant in energy 4101200100029 
            range 0.025 - 2.5 eV .                                4101200100030 
REL-REF    (R,,S.F.Mughabghab+,R,BNL-325,1984)                    4101200100031 
ERR-ANALYS (DATA-ERR) Error is not specified .                    4101200100032 
STATUS      Data are taken from the reference .                   4101200100033 
HISTORY    (19900316C)  Compiled at the center - CJD              4101200100034 
           (20020729A) DATE is corrected                          4101200100035 
           (20090324A) M.M. Subents 008 -013 were added.          4101200100036 
            BIB and COMMON information was added.                 4101200100037 
            Free text was corrected to be human-readable.         4101200100038 
ENDBIB              36          0                                 4101200100039 
COMMON               2          3                                 4101200100040 
ASSUM      ASSUM-ERR                                              4101200100041 
B          B                                                      4101200100042 
 3.761      0.006                                                 4101200100043 
ENDCOMMON            3          0                                 4101200100044 
ENDSUBENT           43          0                                 4101200199999 
SUBENT        41012002   20090324                             41464101200200001 
BIB                  4          9                                 4101200200002 
REACTION  1(92-U-236(N,TOT),,SIG,,,RECOM)                         4101200200003 
          2(92-U-236(N,TOT),,SIG)                                 4101200200004 
SAMPLE    1 Metal samples, 9 disks. Transmission 0.927.           4101200200005 
          2 U3-O8 sample.  Transmission 0.62 .                    4101200200006 
COMMENT    Of authors. Measured by metal samples value is         4101200200007 
           recommended by authors.                                4101200200008 
           Measurement by U3-O8 sample was used as test.          4101200200009 
STATUS     (TABLE) Table 2 of reference.                          4101200200010 
           (DEP,41012007)                                         4101200200011 
ENDBIB               9          0                                 4101200200012 
NOCOMMON             0          0                                 4101200200013 
DATA                 4          1                                 4101200200014 
EN         DATA      1DATA-ERR  1DATA      2                      4101200200015 
EV         B          B          B                                4101200200016 
   2.53E-02   16.0        0.1      18.2                           4101200200017 
ENDDATA              3          0                                 4101200200018 
ENDSUBENT           17          0                                 4101200299999 
SUBENT        41012003   20090324                             41464101200300001 
BIB                  3          6                                 4101200300002 
REACTION   (92-U-236(N,EL)92-U-236,,SIG,,,DERIV)                  4101200300003 
STATUS     (TABLE) Table 2 of reference.                          4101200300004 
           (DEP,41012007) Derived from total c-s of energy range  4101200300005 
            0.025 - 2.5 eV by the assumption of 1/v dependence of 4101200300006 
            total c-s.                                            4101200300007 
HISTORY    (20090324A) DERIV was added in REACTION .              4101200300008 
ENDBIB               6          0                                 4101200300009 
NOCOMMON             0          0                                 4101200300010 
DATA                 3          1                                 4101200300011 
EN         DATA       DATA-ERR                                    4101200300012 
EV         B          B                                           4101200300013 
   2.53E-02  1.057E+01     6.0E-2                                 4101200300014 
ENDDATA              3          0                                 4101200300015 
ENDSUBENT           14          0                                 4101200399999 
SUBENT        41012004   20090324                             41464101200400001 
BIB                  3          6                                 4101200400002 
REACTION   (92-U-236(N,G)92-U-237,,SIG,,,DERIV)                   4101200400003 
STATUS     (TABLE) Table 2 of reference.                          4101200400004 
           (DEP,41012007) Derived from total c-s of energy range  4101200400005 
            0.025 - 2.5 eV by the assumption of 1/v dependence of 4101200400006 
            total c-s.                                            4101200400007 
HISTORY    (20090324A) DERIV was added in REACTION .              4101200400008 
ENDBIB               6          0                                 4101200400009 
NOCOMMON             0          0                                 4101200400010 
DATA                 3          1                                 4101200400011 
EN         DATA       DATA-ERR                                    4101200400012 
EV         B          B                                           4101200400013 
   2.53E-02   5.41         0.6                                    4101200400014 
ENDDATA              3          0                                 4101200400015 
ENDSUBENT           14          0                                 4101200499999 
SUBENT        41012005   20090324                             41464101200500001 
BIB                  4         10                                 4101200500002 
REACTION  1(92-U-236(N,0),,EN)  Resonance Energy                  4101200500003 
          2(92-U-236(N,G),,WID)                                   4101200500004 
          3(92-U-236(N,EL),,WID/RED)                              4101200500005 
SAMPLE      U3-O8 and 1 disk.                                     4101200500006 
ANALYSIS   (AREA,SHAPE) Analysis in energy range <100 eV.         4101200500007 
            Single-level Breit-Wigner analysis.                   4101200500008 
            Measured transmissions (Fig.2) were used.             4101200500009 
STATUS     (TABLE) Table 3 of reference.                          4101200500010 
           (DEP,41012011)                                         4101200500011 
           (DEP,41012012)                                         4101200500012 
ENDBIB              10          0                                 4101200500013 
COMMON               1          3                                 4101200500014 
MOMENTUM L                                                        4101200500015 
NO-DIM                                                            4101200500016 
0.                                                                4101200500017 
ENDCOMMON            3          0                                 4101200500018 
DATA                 6          1                                 4101200500019 
DATA      1DATA-ERR  1DATA      2DATA-ERR  2DATA      3DATA-ERR  34101200500020 
EV         EV         EV         EV         EV         EV         4101200500021 
   5.45         2.E-02   2.48E-02     6.E-04   9.50E-04    1.5E-054101200500022 
ENDDATA              3          0                                 4101200500023 
ENDSUBENT           22          0                                 4101200599999 
SUBENT        41012006   20090324                             41464101200600001 
BIB                  6          8                                 4101200600002 
REACTION  1(92-U-236(N,0),,EN)                                    4101200600003 
          2(92-U-236(N,EL),,WID/RED)                              4101200600004 
SAMPLE      U3-O8 sample.                                         4101200600005 
ANALYSIS   (AREA)                                                 4101200600006 
ASSUMED    (ASSUM1,92-U-236(N,G),,WID)  Taken from BNL,1984       4101200600007 
STATUS     (TABLE) Table 3 of reference.                          4101200600008 
           (DEP,41012013)                                         4101200600009 
HISTORY    (20090324A) ASSUM-ERR was added.                       4101200600010 
ENDBIB               8          0                                 4101200600011 
COMMON               1          3                                 4101200600012 
MOMENTUM L                                                        4101200600013 
NO-DIM                                                            4101200600014 
0.                                                                4101200600015 
ENDCOMMON            3          0                                 4101200600016 
DATA                 6          7                                 4101200600017 
DATA      1DATA-ERR  1DATA      2DATA-ERR  2ASSUM1     ASSUM1-ERR 4101200600018 
EV         EV         MILLI-EV   MILLI-EV   MILLI-EV   MILLI-EV   4101200600019 
   29.8       .13       0.090      .008       23.       1.5       4101200600020 
   34.1       .15       0.40       .07        23.       1.5       4101200600021 
   43.9       .28       1.96       .09        21.                 4101200600022 
   62.3       .4         .005                 23.       1.5       4101200600023 
   71.4       .5        1.55       .09        23.1                4101200600024 
   86.5       .6        2.43       .14        22.6                4101200600025 
  102.3       .8         .15       .06        23.       1.5       4101200600026 
ENDDATA              9          0                                 4101200600027 
ENDSUBENT           26          0                                 4101200699999 
SUBENT        41012007   20090324                             41464101200700001 
BIB                  6          9                                 4101200700002 
REACTION   (92-U-236(N,TOT),,SIG)                                 4101200700003 
SAMPLE      9 metal disks.                                        4101200700004 
CORRECTION  Correction of total c-s for admixtures of             4101200700005 
            U-235 - 0.33 barn, of U-238 - 0.01 barn.              4101200700006 
ERR-ANALYS (ERR-DIG) Digitizing error of DATA .                   4101200700007 
           (MISC-ERR-D)Error of digitizing the time channel number4101200700008 
MISC-COL   (MISC) Digitized number of channel.                    4101200700009 
STATUS     (CURVE) Fig.1 b, solid circles, of reference.          4101200700010 
           (DEP,41012009)                                         4101200700011 
ENDBIB               9          0                                 4101200700012 
COMMON               2          3                                 4101200700013 
MISC-ERR-D ERR-DIG                                                4101200700014 
NO-DIM     B                                                      4101200700015 
0.5        0.0332                                                 4101200700016 
ENDCOMMON            3          0                                 4101200700017 
DATA                 3         45                                 4101200700018 
EN         DATA       MISC                                        4101200700019 
EV         B          NO-DIM                                      4101200700020 
3.086       10.844        45.                                     4101200700021 
1.993       11.610        56.                                     4101200700022 
1.435       11.305        66.                                     4101200700023 
1.054       11.086        77.                                     4101200700024 
0.8267      11.980        87.                                     4101200700025 
0.6643      11.975        97.                                     4101200700026 
0.5563      11.928       106.                                     4101200700027 
0.4566      11.538       117.                                     4101200700028 
0.3937      11.276       126.                                     4101200700029 
0.3379      12.127       136.                                     4101200700030 
0.2892      12.336       147.                                     4101200700031 
0.2536      11.818       157.                                     4101200700032 
0.2241      11.941       167.                                     4101200700033 
0.1995      11.979       177.                                     4101200700034 
0.1787      13.086       187.                                     4101200700035 
0.1627      13.167       196.                                     4101200700036 
0.1473      13.205       206.                                     4101200700037 
0.1339      12.773       216.                                     4101200700038 
0.1213      13.495       227.                                     4101200700039 
0.1122      13.191       236.                                     4101200700040 
0.1041      13.700       245.                                     4101200700041 
0.09537     13.566       256.                                     4101200700042 
0.08833     13.176       266.                                     4101200700043 
0.08205     14.113       276.                                     4101200700044 
0.07641     14.193       286.                                     4101200700045 
0.07133     13.376       296.                                     4101200700046 
0.06719     13.670       305.                                     4101200700047 
0.06299     14.050       315.                                     4101200700048 
0.05881     14.174       326.                                     4101200700049 
0.05536     14.255       336.                                     4101200700050 
0.05221     14.164       346.                                     4101200700051 
0.04932     14.031       356.                                     4101200700052 
0.04666     14.454       366.                                     4101200700053 
0.04421     14.150       376.                                     4101200700054 
0.04195     14.273       386.                                     4101200700055 
0.03986     15.424       396.                                     4101200700056 
0.03792     15.290       406.                                     4101200700057 
0.03612     15.286       416.                                     4101200700058 
0.03444     16.093       426.                                     4101200700059 
0.03288     15.789       436.                                     4101200700060 
0.03142     15.442       446.                                     4101200700061 
0.02993     15.822       457.                                     4101200700062 
0.02866     16.074       467.                                     4101200700063 
0.02747     16.112       477.                                     4101200700064 
0.02635     15.808       487.                                     4101200700065 
ENDDATA             47          0                                 4101200700066 
ENDSUBENT           65          0                                 4101200799999 
SUBENT        41012008   20090324                             41464101200800001 
BIB                  6          9                                 4101200800002 
REACTION   (92-U-236(N,TOT),,SIG)                                 4101200800003 
SAMPLE      U3-O8 sample.                                         4101200800004 
CORRECTION  Correction of total c-s for admixtures of             4101200800005 
            U-235 - 0.33 barn, U-238 - 0.01 barn.                 4101200800006 
ERR-ANALYS (ERR-DIG)  Digitizing error of DATA .                  4101200800007 
           (MISC-ERR-D)Error of digitizing the time channel number4101200800008 
MISC-COL   (MISC) Digitized number of channel.                    4101200800009 
STATUS     (CURVE) Fig.1 b, open circles, of reference.           4101200800010 
           (DEP,41012010)                                         4101200800011 
ENDBIB               9          0                                 4101200800012 
COMMON               2          3                                 4101200800013 
MISC-ERR-D ERR-DIG                                                4101200800014 
NO-DIM     B                                                      4101200800015 
0.5        0.0332                                                 4101200800016 
ENDCOMMON            3          0                                 4101200800017 
DATA                 3         45                                 4101200800018 
EN         DATA       MISC                                        4101200800019 
EV         B          NO-DIM                                      4101200800020 
3.086       11.358       45.                                      4101200800021 
1.993       11.182       56.                                      4101200800022 
1.435       11.605       66.                                      4101200800023 
1.054       11.514       77.                                      4101200800024 
0.8267      11.638       87.                                      4101200800025 
0.6643      11.633       97.                                      4101200800026 
0.5563      11.585      106.                                      4101200800027 
0.4566      11.880      117.                                      4101200800028 
0.3937      12.046      126.                                      4101200800029 
0.3379      11.870      136.                                      4101200800030 
0.2892      11.950      147.                                      4101200800031 
0.2536      12.288      157.                                      4101200800032 
0.2241      12.326      167.                                      4101200800033 
0.1995      12.364      177.                                      4101200800034 
0.1787      12.744      187.                                      4101200800035 
0.1627      12.696      198.                                      4101200800036 
0.1473      12.906      206.                                      4101200800037 
0.1339      13.158      216.                                      4101200800038 
0.1213      13.067      227.                                      4101200800039 
0.1122      13.533      236.                                      4101200800040 
0.1041      13.272      246.                                      4101200800041 
0.09537     13.267      257.                                      4101200800042 
0.08833     13.775      266.                                      4101200800043 
0.08205     13.727      277.                                      4101200800044 
0.07641     13.851      286.                                      4101200800045 
0.07133     13.975      296.                                      4101200800046 
0.06719     14.184      305.                                      4101200800047 
0.06299     14.479      315.                                      4101200800048 
0.05881     14.559      326.                                      4101200800049 
0.05536     14.768      336.                                      4101200800050 
0.05221     15.063      346.                                      4101200800051 
0.04932     15.229      356.                                      4101200800052 
0.04666     15.353      366.                                      4101200800053 
0.04421     15.519      376.                                      4101200800054 
0.04195     15.557      386.                                      4101200800055 
0.03986     15.766      396.                                      4101200800056 
0.03792     16.146      406.                                      4101200800057 
0.03612     16.526      416.                                      4101200800058 
0.03444     16.521      426.                                      4101200800059 
0.03288     16.859      436.                                      4101200800060 
0.03142     17.153      447.                                      4101200800061 
0.02993     17.619      457.                                      4101200800062 
0.02866     18.127      468.                                      4101200800063 
0.02747     18.379      477.                                      4101200800064 
0.02635     18.374      487.                                      4101200800065 
ENDDATA             47          0                                 4101200800066 
ENDSUBENT           65          0                                 4101200899999 
SUBENT        41012009   20090324                             41464101200900001 
BIB                  6          7                                 4101200900002 
REACTION   (92-U-236(N,TOT),,SIG)                                 4101200900003 
SAMPLE      9 metal disks.                                        4101200900004 
ANALYSIS   Obtained from transmission values .                    4101200900005 
ERR-ANALYS (ERR-DIG) Digitizing error of DATA .                   4101200900006 
           (MISC-ERR-D)Error of digitizing the time channel number4101200900007 
MISC-COL   (MISC) Digitized number of channel.                    4101200900008 
STATUS     (CURVE) Fig.1 a, solid circles, of reference.          4101200900009 
ENDBIB               7          0                                 4101200900010 
COMMON               2          3                                 4101200900011 
MISC-ERR-D ERR-DIG                                                4101200900012 
NO-DIM     B                                                      4101200900013 
0.3        0.09834                                                4101200900014 
ENDCOMMON            3          0                                 4101200900015 
DATA                 3        192                                 4101200900016 
EN         DATA       MISC                                        4101200900017 
EV         B          NO-DIM                                      4101200900018 
4.3283        12.808       38.                                    4101200900019 
4.1091        10.632       39.                                    4101200900020 
3.3802        11.057       43.                                    4101200900021 
3.0864        12.355       45.                                    4101200900022 
2.9537        9.5274       46.                                    4101200900023 
2.7127        9.9580       48.                                    4101200900024 
2.6031        12.998       49.                                    4101200900025 
2.3114        11.469       52.                                    4101200900026 
2.0661        13.419       55.                                    4101200900027 
1.9929        10.373       56.                                    4101200900028 
1.7361        11.234       60.                                    4101200900029 
1.6259        14.055       62.                                    4101200900030 
1.5747        11.008       63.                                    4101200900031 
1.3923        12.087       67.                                    4101200900032 
1.2755        12.296       70.                                    4101200900033 
1.1413        13.373       74.                                    4101200900034 
1.0821        10.759       76.                                    4101200900035 
1.0014        12.709       79.                                    4101200900036 
0.9295        9.8775       82.                                    4101200900037 
0.8858        12.916       84.                                    4101200900038 
0.8257        13.344       87.                                    4101200900039 
0.7716        11.162       90.                                    4101200900040 
0.7226        10.285       93.                                    4101200900041 
0.7073        14.195       94.                                    4101200900042 
0.6782        11.800       96.                                    4101200900043 
0.6377        12.444       99.                                    4101200900044 
0.6127        14.180       101.                                   4101200900045 
0.6007        11.350       102.                                   4101200900046 
0.5563        11.123       106.                                   4101200900047 
0.5261        12.203       109.                                   4101200900048 
0.5073        9.5901       111.                                   4101200900049 
0.4895        12.193       113.                                   4101200900050 
0.4645        9.7959       116.                                   4101200900051 
0.4566        13.489       117.                                   4101200900052 
0.4269        11.306       121.                                   4101200900053 
0.4065        9.3414       124.                                   4101200900054 
0.3937        11.510       126.                                   4101200900055 
0.3698        10.632       130.                                   4101200900056 
0.3587        12.583       132.                                   4101200900057 
0.3429        11.053       135.                                   4101200900058 
0.3330        13.874       137.                                   4101200900059 
0.3189        11.477       140.                                   4101200900060 
0.3014        12.337       144.                                   4101200900061 
0.2892        11.026       147.                                   4101200900062 
0.2815        13.194       149.                                   4101200900063 
0.2705        11.449       152.                                   4101200900064 
0.2669        13.620       153.                                   4101200900065 
0.2602        10.572       155.                                   4101200900066 
0.2504        13.824       158.                                   4101200900067 
0.2441        11.430       160.                                   4101200900068 
0.2352        12.508       163.                                   4101200900069 
0.2296        10.548       165.                                   4101200900070 
0.2214        12.715       168.                                   4101200900071 
0.2188        10.104       169.                                   4101200900072 
0.2137        13.793       171.                                   4101200900073 
0.2113        10.965       172.                                   4101200900074 
0.2041        13.133       175.                                   4101200900075 
0.1995        10.302       177.                                   4101200900076 
0.1951        14.209       179.                                   4101200900077 
0.1908        11.815       181.                                   4101200900078 
0.1826        14.630       185.                                   4101200900079 
0.1826        11.803       185.                                   4101200900080 
0.1731        12.010       190.                                   4101200900081 
0.1695        14.396       192.                                   4101200900082 
0.1627        13.734       196.                                   4101200900083 
0.1578        15.901       199.                                   4101200900084 
0.1563        13.072       200.                                   4101200900085 
0.1532        11.547       202.                                   4101200900086 
0.1517        13.499       203.                                   4101200900087 
0.1473        15.232       206.                                   4101200900088 
0.1404        15.438       211.                                   4101200900089 
0.1404        13.480       211.                                   4101200900090 
0.1352        11.516       215.                                   4101200900091 
0.1327        14.118       217.                                   4101200900092 
0.1268        14.106       222.                                   4101200900093 
0.1257        11.714       223.                                   4101200900094 
0.1224        14.315       226.                                   4101200900095 
0.1202        11.266       228.                                   4101200900096 
0.1182        13.434       230.                                   4101200900097 
0.1141        14.297       234.                                   4101200900098 
0.1122        12.118       236.                                   4101200900099 
0.1094        12.763       239.                                   4101200900100 
0.1076        14.932       241.                                   4101200900101 
0.1058        12.969       243.                                   4101200900102 
0.1016        14.263       248.                                   4101200900103 
0.0992        12.300       251.                                   4101200900104 
0.09842       14.034       252.                                   4101200900105 
0.09537       14.895       256.                                   4101200900106 
0.09389       11.629       258.                                   4101200900107 
0.09175       14.666       261.                                   4101200900108 
0.09036       11.400       263.                                   4101200900109 
0.08833       11.390       266.                                   4101200900110 
0.08767       14.433       267.                                   4101200900111 
0.08448       12.466       272.                                   4101200900112 
0.08448       14.857       272.                                   4101200900113 
0.08205       13.542       276.                                   4101200900114 
0.08087       16.145       278.                                   4101200900115 
0.07915       12.662       281.                                   4101200900116 
0.07804       14.613       283.                                   4101200900117 
0.07641       15.911       286.                                   4101200900118 
0.07432       14.597       290.                                   4101200900119 
0.0728        13.068       293.                                   4101200900120 
0.07133       14.365       296.                                   4101200900121 
0.06991       12.185       299.                                   4101200900122 
0.06898       15.004       301.                                   4101200900123 
0.06808       12.826       303.                                   4101200900124 
0.06675       14.776       306.                                   4101200900125 
0.06588       13.032       308.                                   4101200900126 
0.06462       12.589       311.                                   4101200900127 
0.06339       14.323       314.                                   4101200900128 
0.06142       13.658       319.                                   4101200900129 
0.06066       14.740       321.                                   4101200900130 
0.05917       14.079       325.                                   4101200900131 
0.05809       12.985       328.                                   4101200900132 
0.05809       16.895       328.                                   4101200900133 
0.05705       14.714       331.                                   4101200900134 
0.05636       13.189       333.                                   4101200900135 
0.05536       14.486       336.                                   4101200900136 
0.05471       12.525       338.                                   4101200900137 
0.05375       14.475       341.                                   4101200900138 
0.05282       12.945       344.                                   4101200900139 
0.05191       14.459       347.                                   4101200900140 
0.05044       12.927       352.                                   4101200900141 
0.04987       14.660       354.                                   4101200900142 
0.04932       12.917       356.                                   4101200900143 
0.04849       13.995       359.                                   4101200900144 
0.04743       12.466       363.                                   4101200900145 
0.04717       15.072       364.                                   4101200900146 
0.04615       12.453       368.                                   4101200900147 
0.0459        15.277       369.                                   4101200900148 
0.04492       12.442       373.                                   4101200900149 
0.04468       15.265       374.                                   4101200900150 
0.04397       13.302       377.                                   4101200900151 
0.04351       16.122       379.                                   4101200900152 
0.04283       13.724       382.                                   4101200900153 
0.04195       13.281       386.                                   4101200900154 
0.04173       15.450       387.                                   4101200900155 
0.04109       13.488       390.                                   4101200900156 
0.04026       16.522       394.                                   4101200900157 
0.03986       14.342       396.                                   4101200900158 
0.03926       17.162       399.                                   4101200900159 
0.03887       13.243       401.                                   4101200900160 
0.03829       15.845       404.                                   4101200900161 
0.03792       12.145       406.                                   4101200900162 
0.03773       15.616       407.                                   4101200900163 
0.03718       13.441       410.                                   4101200900164 
0.03647       13.429       414.                                   4101200900165 
0.03612       16.686       416.                                   4101200900166 
0.03577       14.506       418.                                   4101200900167 
0.03543       17.982       420.                                   4101200900168 
0.0351        16.454       422.                                   4101200900169 
0.03477       13.190       424.                                   4101200900170 
0.03428       15.355       427.                                   4101200900171 
0.03365       12.956       431.                                   4101200900172 
0.03334       15.558       433.                                   4101200900173 
0.03303       12.728       435.                                   4101200900174 
0.03273       17.071       437.                                   4101200900175 
0.03243       14.893       439.                                   4101200900176 
0.03228       13.585       440.                                   4101200900177 
0.03185       11.841       443.                                   4101200900178 
0.0317        14.446       444.                                   4101200900179 
0.03156       16.616       445.                                   4101200900180 
0.03114       15.739       448.                                   4101200900181 
0.03086       11.605       450.                                   4101200900182 
0.03059       14.644       452.                                   4101200900183 
0.03032       17.031       454.                                   4101200900184 
0.03019       12.681       455.                                   4101200900185 
0.0298        15.063       458.                                   4101200900186 
0.02967       17.887       459.                                   4101200900187 
0.02903       18.310       464.                                   4101200900188 
0.02903       15.483       464.                                   4101200900189 
0.02866       13.303       467.                                   4101200900190 
0.02829       11.774       470.                                   4101200900191 
0.02817       14.816       471.                                   4101200900192 
0.02805       17.861       472.                                   4101200900193 
0.02782       17.851       474.                                   4101200900194 
0.0277        21.326       475.                                   4101200900195 
0.02735       16.320       478.                                   4101200900196 
0.02724       13.709       479.                                   4101200900197 
0.02701       17.617       481.                                   4101200900198 
0.02679       20.219       483.                                   4101200900199 
0.02668       11.959       484.                                   4101200900200 
0.02657       14.565       485.                                   4101200900201 
0.02635       19.123       487.                                   4101200900202 
0.02624       11.511       488.                                   4101200900203 
0.02614       15.860       489.                                   4101200900204 
0.02592       18.245       491.                                   4101200900205 
0.02582       20.418       492.                                   4101200900206 
0.02561       14.327       494.                                   4101200900207 
0.02551       16.932       495.                                   4101200900208 
0.0252        14.099       498.                                   4101200900209 
0.0251        18.445       499.                                   4101200900210 
ENDDATA            194          0                                 4101200900211 
ENDSUBENT          210          0                                 4101200999999 
SUBENT        41012010   20090324                             41464101201000001 
BIB                  6          7                                 4101201000002 
REACTION   (92-U-236(N,TOT),,SIG)                                 4101201000003 
SAMPLE      U3-O8 sample.                                         4101201000004 
ANALYSIS   Obtained from transmission values .                    4101201000005 
ERR-ANALYS (ERR-DIG) Digitizing error of DATA .                   4101201000006 
           (MISC-ERR-D)Error of digitizing the time channel number4101201000007 
MISC-COL   (MISC) Digitized number of channel.                    4101201000008 
STATUS     (CURVE) Fig.1 a, open circles, of reference.           4101201000009 
ENDBIB               7          0                                 4101201000010 
COMMON               2          3                                 4101201000011 
MISC-ERR-D ERR-DIG                                                4101201000012 
NO-DIM     B                                                      4101201000013 
0.3        0.09834                                                4101201000014 
ENDCOMMON            3          0                                 4101201000015 
DATA                 3        126                                 4101201000016 
EN         DATA       MISC                                        4101201000017 
EV         B          NO-DIM                                      4101201000018 
3.9063         21.497      40.                                    4101201000019 
3.0864         21.269      45.                                    4101201000020 
2.5000         21.691      50.                                    4101201000021 
2.1434         21.464      54.                                    4101201000022 
1.6259         21.663      62.                                    4101201000023 
1.4348         21.436      66.                                    4101201000024 
1.2755         21.426      70.                                    4101201000025 
1.1413         22.066      74.                                    4101201000026 
1.0273         21.624      78.                                    4101201000027 
0.9526         22.268      81.                                    4101201000028 
0.8651         21.390      85.                                    4101201000029 
0.8257         23.125      87.                                    4101201000030 
0.7890         21.814      89.                                    4101201000031 
0.7073         21.802      94.                                    4101201000032 
0.6377         22.443      99.                                    4101201000033 
0.5891         22.217      103.                                   4101201000034 
0.5358         22.205      108.                                   4101201000035 
0.4895         22.193      113.                                   4101201000036 
0.4566         22.618      117.                                   4101201000037 
0.4340         21.524      120.                                   4101201000038 
0.4131         22.385      123.                                   4101201000039 
0.3875         23.028      127.                                   4101201000040 
0.3756         21.286      129.                                   4101201000041 
0.3587         21.713      132.                                   4101201000042 
0.3429         22.358      135.                                   4101201000043 
0.3189         21.476      140.                                   4101201000044 
0.3056         22.771      143.                                   4101201000045 
0.2892         21.675      147.                                   4101201000046 
0.2741         23.407      151.                                   4101201000047 
0.2635         22.093      154.                                   4101201000048 
0.2504         22.302      158.                                   4101201000049 
0.2382         22.292      162.                                   4101201000050 
0.2268         23.153      166.                                   4101201000051 
0.2188         22.059      169.                                   4101201000052 
0.2113         23.139      172.                                   4101201000053 
0.2041         22.045      175.                                   4101201000054 
0.1973         22.689      178.                                   4101201000055 
0.1887         22.897      182.                                   4101201000056 
0.1807         23.105      186.                                   4101201000057 
0.1731         23.312      190.                                   4101201000058 
0.1661         23.085      194.                                   4101201000059 
0.1578         23.073      199.                                   4101201000060 
0.1517         22.196      203.                                   4101201000061 
0.1459         23.490      207.                                   4101201000062 
0.1417         23.047      210.                                   4101201000063 
0.1365         23.037      214.                                   4101201000064 
0.1303         23.678      219.                                   4101201000065 
0.1268         23.018      222.                                   4101201000066 
0.1213         23.225      227.                                   4101201000067 
0.1171         23.650      231.                                   4101201000068 
0.1141         23.641      234.                                   4101201000069 
0.1103         22.980      238.                                   4101201000070 
0.1067         23.623      242.                                   4101201000071 
0.1033         23.396      246.                                   4101201000072 
0.1008         23.824      249.                                   4101201000073 
0.09842        23.165      252.                                   4101201000074 
0.09463        22.935      257.                                   4101201000075 
0.09246        22.927      260.                                   4101201000076 
0.08968        23.353      264.                                   4101201000077 
0.08767        23.997      267.                                   4101201000078 
0.08448        23.335      272.                                   4101201000079 
0.08264        23.762      275.                                   4101201000080 
0.08029        22.882      279.                                   4101201000081 
0.07859        23.962      282.                                   4101201000082 
0.07695        23.955      285.                                   4101201000083 
0.07432        24.161      290.                                   4101201000084 
0.0728         22.631      293.                                   4101201000085 
0.07231        24.367      294.                                   4101201000086 
0.07038        24.140      298.                                   4101201000087 
0.06853        23.697      302.                                   4101201000088 
0.06675        24.340      306.                                   4101201000089 
0.06504        24.113      310.                                   4101201000090 
0.06339        24.754      314.                                   4101201000091 
0.06181        24.094      318.                                   4101201000092 
0.05991        24.951      323.                                   4101201000093 
0.05881        24.073      326.                                   4101201000094 
0.05739        23.848      330.                                   4101201000095 
0.05603        25.141      334.                                   4101201000096 
0.05439        24.044      339.                                   4101201000097 
0.05344        24.688      342.                                   4101201000098 
0.05221        24.679      346.                                   4101201000099 
0.05102        24.886      350.                                   4101201000100 
0.05016        25.748      353.                                   4101201000101 
0.04877        24.868      358.                                   4101201000102 
0.04796        24.859      361.                                   4101201000103 
0.04717        25.939      364.                                   4101201000104 
0.04615        25.930      368.                                   4101201000105 
0.04541        25.053      371.                                   4101201000106 
0.04444        25.260      375.                                   4101201000107 
0.04351        25.904      379.                                   4101201000108 
0.04261        25.676      383.                                   4101201000109 
0.04195        24.801      386.                                   4101201000110 
0.04109        25.878      390.                                   4101201000111 
0.04047        25.000      393.                                   4101201000112 
0.03966        25.860      397.                                   4101201000113 
0.03867        25.197      402.                                   4101201000114 
0.0381         25.840      405.                                   4101201000115 
0.03755        26.050      408.                                   4101201000116 
0.03682        25.390      412.                                   4101201000117 
0.03647        26.690      414.                                   4101201000118 
0.03612        25.598      416.                                   4101201000119 
0.03543        26.458      420.                                   4101201000120 
0.03493        25.582      423.                                   4101201000121 
0.03428        26.008      427.                                   4101201000122 
0.03349        25.560      432.                                   4101201000123 
0.03303        26.856      435.                                   4101201000124 
0.03214        26.409      441.                                   4101201000125 
0.0317         26.618      444.                                   4101201000126 
0.031          26.824      449.                                   4101201000127 
0.03032        26.377      454.                                   4101201000128 
0.03006        27.894      456.                                   4101201000129 
0.02941        27.012      461.                                   4101201000130 
0.02928        28.967      462.                                   4101201000131 
0.02866        27.650      467.                                   4101201000132 
0.02841        28.948      469.                                   4101201000133 
0.02782        28.066      474.                                   4101201000134 
0.02747        28.929      477.                                   4101201000135 
0.02724        26.970      479.                                   4101201000136 
0.0269         27.180      482.                                   4101201000137 
0.02668        29.131      484.                                   4101201000138 
0.02646        27.386      486.                                   4101201000139 
0.02614        27.814      489.                                   4101201000140 
0.02582        27.807      492.                                   4101201000141 
0.02561        29.542      494.                                   4101201000142 
0.0253         27.796      497.                                   4101201000143 
0.0250         28.876      500.                                   4101201000144 
ENDDATA            128          0                                 4101201000145 
ENDSUBENT          144          0                                 4101201099999 
SUBENT        41012011   20090324                             41464101201100001 
BIB                  5          6                                 4101201100002 
REACTION   (92-U-236(N,TOT),,TRN)                                 4101201100003 
SAMPLE     Metal disk.                                            4101201100004 
ERR-ANALYS (ERR-DIG) Digitizing error of DATA.                    4101201100005 
           (MISC-ERR-D)Error of digitizing the time channel number4101201100006 
MISC-COL   (MISC) Digitized number of channel.                    4101201100007 
STATUS     (CURVE) Fig.2 right, solid circles, of reference.      4101201100008 
ENDBIB               6          0                                 4101201100009 
COMMON               2          3                                 4101201100010 
MISC-ERR-D ERR-DIG                                                4101201100011 
NO-DIM     NO-DIM                                                 4101201100012 
0.1           0.12E-02                                            4101201100013 
ENDCOMMON            3          0                                 4101201100014 
DATA                 3         69                                 4101201100015 
EN         DATA       MISC                                        4101201100016 
EV         NO-DIM     NO-DIM                                      4101201100017 
7.309        0.991      462.                                      4101201100018 
7.246        0.991      464.                                      4101201100019 
7.184        0.967      466.                                      4101201100020 
7.123        0.978      468.                                      4101201100021 
7.062        0.965      470.                                      4101201100022 
7.002        0.982      472.                                      4101201100023 
6.943        0.955      474.                                      4101201100024 
6.885        0.963      476.                                      4101201100025 
6.828        0.964      478.                                      4101201100026 
6.771        0.989      480.                                      4101201100027 
6.715        0.965      482.                                      4101201100028 
6.659        0.976      484.                                      4101201100029 
6.605        0.988      486.                                      4101201100030 
6.551        0.969      488.                                      4101201100031 
6.497        0.978      490.                                      4101201100032 
6.445        0.984      492.                                      4101201100033 
6.393        0.989      494.                                      4101201100034 
6.341        0.990      496.                                      4101201100035 
6.290        0.979      498.                                      4101201100036 
6.240        0.972      500.                                      4101201100037 
6.190        0.986      502.                                      4101201100038 
6.141        0.964      504.                                      4101201100039 
6.093        0.992      506.                                      4101201100040 
6.045        0.965      508.                                      4101201100041 
5.998        0.976      510.                                      4101201100042 
5.951        0.985      512.                                      4101201100043 
5.905        0.972      514.                                      4101201100044 
5.859        0.972      516.                                      4101201100045 
5.814        0.967      518.                                      4101201100046 
5.769        0.940      520.                                      4101201100047 
5.725        0.941      522.                                      4101201100048 
5.681        0.905      524.                                      4101201100049 
5.638        0.867      526.                                      4101201100050 
5.596        0.797      528.                                      4101201100051 
5.554        0.578      530.                                      4101201100052 
5.512        0.254      532.                                      4101201100053 
5.471        0.575E-01  534.                                      4101201100054 
5.430        0.359E-01  536.                                      4101201100055 
5.390        0.173      538.                                      4101201100056 
5.350        0.492      540.                                      4101201100057 
5.310        0.748      542.                                      4101201100058 
5.271        0.877      544.                                      4101201100059 
5.233        0.908      546.                                      4101201100060 
5.195        0.930      548.                                      4101201100061 
5.157        0.958      550.                                      4101201100062 
5.120        0.969      552.                                      4101201100063 
5.083        0.978      554.                                      4101201100064 
5.046        0.984      556.                                      4101201100065 
5.010        0.968      558.                                      4101201100066 
4.974        0.979      560.                                      4101201100067 
4.939        0.988      562.                                      4101201100068 
4.904        0.994      564.                                      4101201100069 
4.870        0.989      566.                                      4101201100070 
4.835        0.973      568.                                      4101201100071 
4.801        0.987      570.                                      4101201100072 
4.768        0.979      572.                                      4101201100073 
4.735        0.980      574.                                      4101201100074 
4.702        0.997      576.                                      4101201100075 
4.669        0.983      578.                                      4101201100076 
4.637        0.975      580.                                      4101201100077 
4.606        0.979      582.                                      4101201100078 
4.574        0.995      584.                                      4101201100079 
4.543        0.982      586.                                      4101201100080 
4.512        0.996      588.                                      4101201100081 
4.481        0.997      590.                                      4101201100082 
4.451        0.981      592.                                      4101201100083 
4.421        0.998      594.                                      4101201100084 
4.392        0.998      596.                                      4101201100085 
4.362        0.982      598.                                      4101201100086 
ENDDATA             71          0                                 4101201100087 
ENDSUBENT           86          0                                 4101201199999 
SUBENT        41012012   20090324                             41464101201200001 
BIB                  5          6                                 4101201200002 
REACTION   (92-U-236(N,TOT),,TRN)                                 4101201200003 
SAMPLE      U3-O8 sample.                                         4101201200004 
ERR-ANALYS (ERR-DIG) Digitizing error of DATA .                   4101201200005 
           (MISC-ERR-D)Error of digitizing the time channel number4101201200006 
MISC-COL   (MISC) Digitized number of channel.                    4101201200007 
STATUS     (CURVE) Fig.2 right, open circles, of reference.       4101201200008 
ENDBIB               6          0                                 4101201200009 
COMMON               2          3                                 4101201200010 
MISC-ERR-D ERR-DIG                                                4101201200011 
NO-DIM     NO-DIM                                                 4101201200012 
0.1           0.12E-02                                            4101201200013 
ENDCOMMON            3          0                                 4101201200014 
DATA                 3         96                                 4101201200015 
EN         DATA       MISC                                        4101201200016 
EV         NO-DIM     NO-DIM                                      4101201200017 
7.308        0.645      462.                                      4101201200018 
7.245        0.643      464.                                      4101201200019 
7.214        0.626      465.                                      4101201200020 
7.153        0.654      467.                                      4101201200021 
7.122        0.652      468.                                      4101201200022 
7.092        0.635      469.                                      4101201200023 
7.032        0.639      471.                                      4101201200024 
6.972        0.614      473.                                      4101201200025 
6.943        0.634      474.                                      4101201200026 
6.885        0.629      476.                                      4101201200027 
6.827        0.637      478.                                      4101201200028 
6.799        0.610      479.                                      4101201200029 
6.742        0.597      481.                                      4101201200030 
6.686        0.597      483.                                      4101201200031 
6.659        0.562      484.                                      4101201200032 
6.604        0.529      486.                                      4101201200033 
6.550        0.557      488.                                      4101201200034 
6.497        0.571      490.                                      4101201200035 
6.444        0.575      492.                                      4101201200036 
6.392        0.578      494.                                      4101201200037 
6.366        0.548      495.                                      4101201200038 
6.315        0.557      497.                                      4101201200039 
6.265        0.532      499.                                      4101201200040 
6.215        0.541      501.                                      4101201200041 
6.190        0.519      502.                                      4101201200042 
6.141        0.500      504.                                      4101201200043 
6.092        0.471      506.                                      4101201200044 
6.068        0.493      507.                                      4101201200045 
6.045        0.468      508.                                      4101201200046 
6.021        0.441      509.                                      4101201200047 
5.974        0.425      511.                                      4101201200048 
5.950        0.409      512.                                      4101201200049 
5.927        0.382      513.                                      4101201200050 
5.904        0.371      514.                                      4101201200051 
5.881        0.341      515.                                      4101201200052 
5.836        0.297      517.                                      4101201200053 
5.813        0.284      518.                                      4101201200054 
5.791        0.249      519.                                      4101201200055 
5.769        0.232      520.                                      4101201200056 
5.747        0.194      521.                                      4101201200057 
5.725        0.164      522.                                      4101201200058 
5.703        0.137      523.                                      4101201200059 
5.681        0.104      524.                                      4101201200060 
5.659        0.856E-01  525.                                      4101201200061 
5.638        0.529E-01  526.                                      4101201200062 
5.616        0.311E-01  527.                                      4101201200063 
5.574        0.180E-01  529.                                      4101201200064 
5.532        0.129E-01  531.                                      4101201200065 
5.491        0.793E-02  533.                                      4101201200066 
5.450        0.837E-02  535.                                      4101201200067 
5.409        0.600E-02  537.                                      4101201200068 
5.389        0.911E-02  538.                                      4101201200069 
5.349        0.680E-02  540.                                      4101201200070 
5.290        0.468E-02  543.                                      4101201200071 
5.271        0.214E-01  544.                                      4101201200072 
5.232        0.411E-01  546.                                      4101201200073 
5.213        0.660E-01  547.                                      4101201200074 
5.194        0.909E-01  548.                                      4101201200075 
5.175        0.126      549.                                      4101201200076 
5.157        0.171      550.                                      4101201200077 
5.138        0.198      551.                                      4101201200078 
5.119        0.237      552.                                      4101201200079 
5.101        0.275      553.                                      4101201200080 
5.082        0.298      554.                                      4101201200081 
5.064        0.331      555.                                      4101201200082 
5.046        0.361      556.                                      4101201200083 
5.028        0.402      557.                                      4101201200084 
5.010        0.419      558.                                      4101201200085 
4.992        0.439      559.                                      4101201200086 
4.956        0.453      561.                                      4101201200087 
4.939        0.478      562.                                      4101201200088 
4.921        0.511      563.                                      4101201200089 
4.886        0.528      565.                                      4101201200090 
4.852        0.517      567.                                      4101201200091 
4.835        0.542      568.                                      4101201200092 
4.818        0.561      569.                                      4101201200093 
4.801        0.545      570.                                      4101201200094 
4.784        0.559      571.                                      4101201200095 
4.767        0.578      572.                                      4101201200096 
4.751        0.557      573.                                      4101201200097 
4.734        0.590      574.                                      4101201200098 
4.718        0.607      575.                                      4101201200099 
4.685        0.602      577.                                      4101201200100 
4.653        0.616      579.                                      4101201200101 
4.621        0.638      581.                                      4101201200102 
4.605        0.622      582.                                      4101201200103 
4.574        0.647      584.                                      4101201200104 
4.542        0.625      586.                                      4101201200105 
4.512        0.670      588.                                      4101201200106 
4.496        0.623      589.                                      4101201200107 
4.466        0.657      591.                                      4101201200108 
4.436        0.638      593.                                      4101201200109 
4.421        0.658      594.                                      4101201200110 
4.391        0.658      596.                                      4101201200111 
4.362        0.678      598.                                      4101201200112 
4.347        0.650      599.                                      4101201200113 
ENDDATA             98          0                                 4101201200114 
ENDSUBENT          113          0                                 4101201299999 
SUBENT        41012013   20090324                             41464101201300001 
BIB                  5          6                                 4101201300002 
REACTION   (92-U-236(N,TOT),,TRN)                                 4101201300003 
SAMPLE      U3-O8 sample.                                         4101201300004 
ERR-ANALYS (ERR-DIG) Digitizing error of DATA .                   4101201300005 
           (MISC-ERR-D)Error of digitizing the time channel number4101201300006 
MISC-COL   (MISC) Digitized number of channel.                    4101201300007 
STATUS     (CURVE) Fig.2 left, open circles, of reference.        4101201300008 
ENDBIB               6          0                                 4101201300009 
COMMON               2          3                                 4101201300010 
MISC-ERR-D ERR-DIG                                                4101201300011 
NO-DIM     NO-DIM                                                 4101201300012 
0.15          0.13E-02                                            4101201300013 
ENDCOMMON            3          0                                 4101201300014 
DATA                 3         96                                 4101201300015 
EN         DATA       MISC                                        4101201300016 
EV         NO-DIM     NO-DIM                                      4101201300017 
113.96      0.741      117.                                       4101201300018 
112.03      0.727      118.                                       4101201300019 
108.33      0.708      120.                                       4101201300020 
104.81      0.695      122.                                       4101201300021 
103.11      0.681      123.                                       4101201300022 
101.45      0.615      124.                                       4101201300023 
 99.84      0.632      125.                                       4101201300024 
 98.26      0.668      126.                                       4101201300025 
 96.72      0.685      127.                                       4101201300026 
 93.74      0.671      129.                                       4101201300027 
 90.90      0.672      131.                                       4101201300028 
 89.53      0.641      132.                                       4101201300029 
 88.19      0.617      133.                                       4101201300030 
 86.87      0.459      134.                                       4101201300031 
 85.59      0.338      135.                                       4101201300032 
 84.34      0.532      136.                                       4101201300033 
 83.11      0.725      137.                                       4101201300034 
 80.74      0.729      139.                                       4101201300035 
 79.59      0.715      140.                                       4101201300036 
 78.46      0.687      141.                                       4101201300037 
 76.28      0.688      143.                                       4101201300038 
 75.23      0.671      144.                                       4101201300039 
 73.18      0.669      146.                                       4101201300040 
 72.19      0.561      147.                                       4101201300041 
 71.22      0.343      148.                                       4101201300042 
 70.26      0.368      149.                                       4101201300043 
 69.33      0.634      150.                                       4101201300044 
 68.41      0.734      151.                                       4101201300045 
 66.64      0.729      153.                                       4101201300046 
 64.10      0.724      156.                                       4101201300047 
 63.28      0.702      157.                                       4101201300048 
 62.49      0.688      158.                                       4101201300049 
 61.70      0.666      159.                                       4101201300050 
 60.93      0.688      160.                                       4101201300051 
 60.18      0.722      161.                                       4101201300052 
 58.71      0.697      163.                                       4101201300053 
 58.00      0.714      164.                                       4101201300054 
 56.61      0.701      166.                                       4101201300055 
 54.62      0.707      169.                                       4101201300056 
 53.35      0.688      171.                                       4101201300057 
 52.12      0.672      173.                                       4101201300058 
 51.52      0.700      174.                                       4101201300059 
 50.36      0.700      176.                                       4101201300060 
 49.23      0.686      178.                                       4101201300061 
 48.14      0.667      180.                                       4101201300062 
 47.61      0.684      181.                                       4101201300063 
 47.09      0.668      182.                                       4101201300064 
 46.58      0.643      183.                                       4101201300065 
 45.58      0.616      185.                                       4101201300066 
 45.09      0.597      186.                                       4101201300067 
 44.61      0.550      187.                                       4101201300068 
 44.13      0.409      188.                                       4101201300069 
 43.67      0.168      189.                                       4101201300070 
 43.21      0.207      190.                                       4101201300071 
 42.76      0.506      191.                                       4101201300072 
 42.31      0.634      192.                                       4101201300073 
 41.88      0.714      193.                                       4101201300074 
 41.45      0.728      194.                                       4101201300075 
 40.60      0.715      196.                                       4101201300076 
 40.19      0.726      197.                                       4101201300077 
 39.39      0.702      199.                                       4101201300078 
 38.61      0.705      201.                                       4101201300079 
 38.23      0.700      202.                                       4101201300080 
 37.48      0.680      204.                                       4101201300081 
 37.12      0.708      205.                                       4101201300082 
 36.76      0.678      206.                                       4101201300083 
 36.40      0.648      207.                                       4101201300084 
 35.71      0.673      209.                                       4101201300085 
 35.04      0.676      211.                                       4101201300086 
 34.71      0.660      212.                                       4101201300087 
 34.38      0.588      213.                                       4101201300088 
 34.06      0.367      214.                                       4101201300089 
 33.74      0.174      215.                                       4101201300090 
 33.43      0.398      216.                                       4101201300091 
 33.12      0.630      217.                                       4101201300092 
 32.82      0.686      218.                                       4101201300093 
 32.52      0.725      219.                                       4101201300094 
 32.23      0.697      220.                                       4101201300095 
 31.65      0.720      222.                                       4101201300096 
 31.09      0.698      224.                                       4101201300097 
 30.54      0.721      226.                                       4101201300098 
 30.27      0.691      227.                                       4101201300099 
 30.00      0.630      228.                                       4101201300100 
 29.74      0.387      229.                                       4101201300101 
 29.49      0.246      230.                                       4101201300102 
 29.23      0.486      231.                                       4101201300103 
 28.98      0.694      232.                                       4101201300104 
 28.49      0.689      234.                                       4101201300105 
 28.00      0.698      236.                                       4101201300106 
 27.54      0.679      238.                                       4101201300107 
 27.08      0.704      240.                                       4101201300108 
 26.63      0.704      242.                                       4101201300109 
 26.41      0.680      243.                                       4101201300110 
 26.20      0.708      244.                                       4101201300111 
 25.77      0.691      246.                                       4101201300112 
 25.36      0.700      248.                                       4101201300113 
ENDDATA             98          0                                 4101201300114 
ENDSUBENT          113          0                                 4101201399999 
ENDENTRY            13          0                                 4101299999999 
