ENTRY            41332   20150226                             416841332  0    1 
SUBENT        41332001   20150226                             416841332  1    1 
BIB                 13         52                                 41332  1    2 
TITLE      .Inelastic neutron scattering and prompt fission       41332  1    3 
            neutron spectra for 237Np.                            41332  1    4 
AUTHOR     (N.V.Kornilov,A.V.Kagalenko,V.Ya.Baryba,V.G.Demenkov,  41332  1    5 
           C.V.Pupko,P.A.Androsenko,A.A.Lychagin,B.V.Zhuravlev,   41332  1    6 
           V.I.Trykova)                                           41332  1    7 
INSTITUTE  (4RUSFEI)                                              41332  1    8 
REFERENCE  (J,ANE,27,1643,200002) Exp. details, graphs,tables     41332  1    9 
           #doi:10.1016/S0306-4549(00)00020-7                     41332  1   10 
           (C,97TRIEST,1,577,199705)  Experiment description      41332  1   11 
                                      and graphs                  41332  1   12 
           (W,KORNILOV,199712)   Data are given on diskette       41332  1   13 
           ((S,ISINN-5,297,199705)=(S,JINR-E3-97-213,297,199705)) 41332  1   14 
            First exp.results. Graphs only.                       41332  1   15 
           ((S,ISINN-5,304,199705)=(S,JINR-E3-97-213,304,199705)) 41332  1   16 
            Measurement for 0.52 MeV inc.neutron energy.          41332  1   17 
METHOD     (TOF) Flight base is 2 m .                             41332  1   18 
DETECTOR   (SOLST) Cylindrical stilbene detector 70 mm diameter,  41332  1   19 
                   50 mm height shielded by lead from gammas      41332  1   20 
                   emitted by Np.                                 41332  1   21 
           (LONGC) For relative measurements                      41332  1   22 
           (SCIN)  Two plastic scintillation counters for time-of 41332  1   23 
                   flight monitoring                              41332  1   24 
MONITOR    (98-CF-252(0,F),PR,NU/DE)                              41332  1   25 
            Main parameters of detector were measured by standard 41332  1   26 
            Cf-252 fission neutron spectrum.                      41332  1   27 
           (6-C-12(N,EL)6-C-12,,DE) Neutron scattering on C sample41332  1   28 
             was measured to normalize Np data.                   41332  1   29 
FACILITY   (VDG,4RUSFEI) EG-1 accelerator,                        41332  1   30 
             ion current is 4-6 microAmper                        41332  1   31 
INC-SOURCE (P-T)  For neutron with energies 1 - 2.5 MeV           41332  1   32 
           (P-LI7) For neutron with energies 0.5 MeV              41332  1   33 
SAMPLE     .Neptunium oxide Np-O2 in stainless-steel container    41332  1   34 
            having cylindrical shape, wall thickness is 0.1 mm.   41332  1   35 
            Container weight is 19.9 gram. neptunium oxide powder 41332  1   36 
            has dimensions 45 mm height, 47 mm diameter,          41332  1   37 
            weight of Np-O2 is 189.1 gram.                        41332  1   38 
            Carbon sample of 47 mm outer diameter, 27 mm inner    41332  1   39 
            diameter, 45 mm height, weight 82.8 g.                41332  1   40 
CORRECTION For scattering on the oxygen and iron nuclei,          41332  1   41 
           For effect of finite sample size,                      41332  1   42 
           For neutron background.                                41332  1   43 
STATUS     (APRVD) .Data are obtained from the author             41332  1   44 
           (TABLE)                                                41332  1   45 
HISTORY    (19990906C)  + +  Compiled at the center - CJD         41332  1   46 
           (20051028U) 3d Reference was added. (M.M.)             41332  1   47 
           (20090429A) M.M.  References S,ISINN-5,297,            41332  1   48 
             S,ISINN-5,304 were added.                            41332  1   49 
            Free text was corrected to be human-readable.         41332  1   50 
            BIB information was added.                            41332  1   51 
           (20111219A) Reaction in Subent 002 was corrected       41332  1   52 
            according to memo CP-D/701.                           41332  1   53 
           (20150226U) Minor correction in refs. S,JINR- .        41332  1   54 
ENDBIB              52          0                                 41332  1   55 
NOCOMMON             0          0                                 41332  1   56 
ENDSUBENT           55          0                                 41332  199999 
SUBENT        41332002   20111219                             41554133200200001 
BIB                  4          6                                 4133200200002 
REACTION   (93-NP-237(N,F),PR,NU/DE)                              4133200200003 
ANALYSIS    The spectrum normalization was adjusted               4133200200004 
             by fitting the evaluated curve to experimental data. 4133200200005 
ERR-ANALYS (ERR-S)  Relative Stat. Error - dN/N                   4133200200006 
HISTORY    (20090429A) 1/MEV -> PT/FIS/MEV .                      4133200200007 
           (20111219A) PR,DE,N -> PR,NU/DE                        4133200200008 
ENDBIB               6          0                                 4133200200009 
COMMON               1          3                                 4133200200010 
EN                                                                4133200200011 
MEV                                                               4133200200012 
 0.52                                                             4133200200013 
ENDCOMMON            3          0                                 4133200200014 
DATA                 3         44                                 4133200200015 
E          DATA       ERR-S                                       4133200200016 
MEV        PT/FIS/MEV PER-CENT                                    4133200200017 
  0.71       3.750E-01   2.5                                      4133200200018 
  0.89       3.610E-01   2.4                                      4133200200019 
  1.09       3.420E-01   2.4                                      4133200200020 
  1.30       3.230E-01   2.9                                      4133200200021 
  1.50       2.930E-01   3.4                                      4133200200022 
  1.70       2.710E-01   3.4                                      4133200200023 
  1.90       2.400E-01   3.7                                      4133200200024 
  2.09       2.230E-01   3.7                                      4133200200025 
  2.29       2.020E-01   3.9                                      4133200200026 
  2.49       1.850E-01   4.0                                      4133200200027 
  2.69       1.570E-01   4.4                                      4133200200028 
  2.88       1.420E-01   4.5                                      4133200200029 
  3.10       1.270E-01   4.6                                      4133200200030 
  3.29       1.120E-01   5.8                                      4133200200031 
  3.50       9.530E-02   4.8                                      4133200200032 
  3.74       8.090E-02   6.0                                      4133200200033 
  3.94       7.330E-02   6.3                                      4133200200034 
  4.11       6.660E-02   6.4                                      4133200200035 
  4.28       5.790E-02   6.5                                      4133200200036 
  4.47       5.100E-02   6.6                                      4133200200037 
  4.67       4.510E-02   6.7                                      4133200200038 
  4.88       3.990E-02   7.0                                      4133200200039 
  5.11       3.370E-02   7.3                                      4133200200040 
  5.36       2.840E-02   7.5                                      4133200200041 
  5.53       2.470E-02   7.6                                      4133200200042 
  5.71       2.230E-02   7.8                                      4133200200043 
  5.90       2.110E-02   8.4                                      4133200200044 
  6.11       1.790E-02   8.2                                      4133200200045 
  6.32       1.430E-02   8.9                                      4133200200046 
  6.54       1.270E-02  10.0                                      4133200200047 
  6.78       1.010E-02  10.2                                      4133200200048 
  7.02       8.910E-03  10.8                                      4133200200049 
  7.29       7.120E-03  11.8                                      4133200200050 
  7.56       5.190E-03  13.6                                      4133200200051 
  7.85       5.210E-03  14.8                                      4133200200052 
  8.16       4.550E-03  14.4                                      4133200200053 
  8.49       4.030E-03  17.0                                      4133200200054 
  8.84       2.590E-03  19.0                                      4133200200055 
  9.21       1.900E-03  23.1                                      4133200200056 
  9.61       1.370E-03  29.0                                      4133200200057 
 10.0        5.000E-04  57.9                                      4133200200058 
 10.5        1.050E-03  32.5                                      4133200200059 
 11.0        2.160E-04  55.0                                      4133200200060 
 12.0        1.380E-04  57.0                                      4133200200061 
ENDDATA             46          0                                 4133200200062 
ENDSUBENT           61          0                                 4133200299999 
SUBENT        41332003   20090429                             41464133200300001 
BIB                  5         21                                 4133200300002 
REACTION   ((93-NP-237(N,F),PR,NU,,REL)*(93-NP-237(N,F),,SIG))    4133200300003 
MISC-COL   (MISC)(((93-NP-237(N,F),PR,NU)*(93-NP-237(N,F),,SIG))/ 4133200300004 
             ((93-NP-237(N,F),PR,NU,,,EVAL)*                      4133200300005 
             (93-NP-237(N,F),,SIG,,,EVAL)))                       4133200300006 
            Deviation from ENDF/B-VI evaluation.                  4133200300007 
COMMENT    -The experimental (SIG-FISS*NU) values and their ratio 4133200300008 
           to ENDF/B-6 data.                                      4133200300009 
           -The errors of the fitting procedure are given         4133200300010 
           in brackets.                                           4133200300011 
           -The systematic errors due to normalization was not    4133200300012 
           included.                                              4133200300013 
            Eo, MeV (SFN)exp        ratio (SFN)exp/(SFN)eval      4133200300014 
            0.99    3.89 (1.3%)     0.963                         4133200300015 
            1.00    4.00 (1.3%)     0.989                         4133200300016 
            1.46    4.53 (1.1%)     1.010                         4133200300017 
            1.49    4.50 (1.2%)     0.999                         4133200300018 
            1.77    5.02 (1.0%)     1.055                         4133200300019 
            1.99    5.05 (1.0%)     1.031                         4133200300020 
            2.47    5.25 (1.2%)     1.058                         4133200300021 
ERR-ANALYS (DATA-ERR)  Error of the fitting procedure             4133200300022 
HISTORY    (20090429A)  DATA 2 were moved in MISC.                4133200300023 
ENDBIB              21          0                                 4133200300024 
NOCOMMON             0          0                                 4133200300025 
DATA                 4          7                                 4133200300026 
EN         DATA       DATA-ERR   MISC                             4133200300027 
MEV        ARB-UNITS  PER-CENT   NO-DIM                           4133200300028 
 0.99        3.89      1.3           0.963                        4133200300029 
 1.00        4.00      1.3           0.989                        4133200300030 
 1.46        4.53      1.1           1.010                        4133200300031 
 1.49        4.50      1.2           0.999                        4133200300032 
 1.77        5.02      1.0           1.055                        4133200300033 
 1.99        5.05      1.0           1.031                        4133200300034 
 2.47        5.25      1.2           1.058                        4133200300035 
ENDDATA              9          0                                 4133200300036 
ENDSUBENT           35          0                                 4133200399999 
SUBENT        41332004   20090429                             41464133200400001 
BIB                  3          3                                 4133200400002 
REACTION   (93-NP-237(N,SCT)93-NP-237,,DA/DE)                     4133200400003 
ERR-ANALYS (ERR-S)  Relative Stat.Error                           4133200400004 
STATUS      Data are presented partly on Fig.4 of S,ISINN-5,297.  4133200400005 
ENDBIB               3          0                                 4133200400006 
COMMON               1          3                                 4133200400007 
ANG                                                               4133200400008 
ADEG                                                              4133200400009 
120.                                                              4133200400010 
ENDCOMMON            3          0                                 4133200400011 
DATA                 4        229                                 4133200400012 
EN         E          DATA       ERR-S                            4133200400013 
MEV        MEV        MB/SR/MEV  PER-CENT                         4133200400014 
 0.99        0.241       157.9      080.                          4133200400015 
 0.99        0.274       128.0      086.                          4133200400016 
 0.99        0.325       90.0       100.                          4133200400017 
 0.99        0.375       71.6       078.                          4133200400018 
 0.99        0.425       102.3      046.                          4133200400019 
 0.99        0.474       100.1      038.                          4133200400020 
 0.99        0.524       153.9      026.                          4133200400021 
 0.99        0.573       172.3      019.                          4133200400022 
 0.99        0.624       208.5      017.                          4133200400023 
 0.99        0.673       152.1      030.                          4133200400024 
 0.99        0.721       106.1      050.                          4133200400025 
 0.99        0.774       30.4       100.                          4133200400026 
 0.99        0.827       101.8      100.                          4133200400027 
 0.99        0.875       332.1      041.                          4133200400028 
 0.99        0.921       908.7      006.                          4133200400029 
 0.99        0.971       1568.6     004.                          4133200400030 
 0.99        1.026       913.8      004.                          4133200400031 
 0.99        1.077       173.7      010.                          4133200400032 
 1.00        0.176       229.9      058.                          4133200400033 
 1.00        0.224       146.5      070.                          4133200400034 
 1.00        0.274       138.4      072.                          4133200400035 
 1.00        0.325       96.3       100.                          4133200400036 
 1.00        0.375       95.6       063.                          4133200400037 
 1.00        0.425       126.0      040.                          4133200400038 
 1.00        0.474       134.1      028.                          4133200400039 
 1.00        0.524       166.7      023.                          4133200400040 
 1.00        0.573       191.1      018.                          4133200400041 
 1.00        0.624       205.9      016.                          4133200400042 
 1.00        0.673       157.0      029.                          4133200400043 
 1.00        0.721       104.2      056.                          4133200400044 
 1.00        0.774       87.6       100.                          4133200400045 
 1.00        0.827       200.7      100.                          4133200400046 
 1.00        0.875       476.4      022.                          4133200400047 
 1.00        0.921       1003.5     005.                          4133200400048 
 1.00        0.971       1405.5     003.                          4133200400049 
 1.00        1.026       728.0      004.                          4133200400050 
 1.00        1.077       101.8      013.                          4133200400051 
 1.00        1.124       0.0        100.                          4133200400052 
 1.46        0.175       190.7      045.                          4133200400053 
 1.46        0.224       69.6       068.                          4133200400054 
 1.46        0.274       77.8       065.                          4133200400055 
 1.46        0.325       76.4       072.                          4133200400056 
 1.46        0.375       162.4      025.                          4133200400057 
 1.46        0.425       123.2      031.                          4133200400058 
 1.46        0.474       74.4       035.                          4133200400059 
 1.46        0.524       58.5       053.                          4133200400060 
 1.46        0.573       62.9       039.                          4133200400061 
 1.46        0.624       71.0       027.                          4133200400062 
 1.46        0.673       64.6       026.                          4133200400063 
 1.46        0.721       47.1       024.                          4133200400064 
 1.46        0.774       18.3       061.                          4133200400065 
 1.46        0.827       5.4        100.                          4133200400066 
 1.46        0.875       21.3       052.                          4133200400067 
 1.46        0.921       20.9       049.                          4133200400068 
 1.46        0.971       36.0       029.                          4133200400069 
 1.46        1.026       60.9       020.                          4133200400070 
 1.46        1.077       79.6       021.                          4133200400071 
 1.46        1.124       56.4       057.                          4133200400072 
 1.46        1.174       32.5       100.                          4133200400073 
 1.46        1.228       37.2       100.                          4133200400074 
 1.46        1.276       92.7       060.                          4133200400075 
 1.46        1.326       283.1      011.                          4133200400076 
 1.46        1.380       630.0      007.                          4133200400077 
 1.46        1.425       898.0      005.                          4133200400078 
 1.46        1.473       799.2      005.                          4133200400079 
 1.46        1.523       392.7      006.                          4133200400080 
 1.46        1.575        80.6      011.                          4133200400081 
 1.46        1.630        11.4      065.                          4133200400082 
 1.49        0.239       103.4      070.                          4133200400083 
 1.49        0.274       90.6       067.                          4133200400084 
 1.49        0.323       101.8      064.                          4133200400085 
 1.49        0.373       97.1       042.                          4133200400086 
 1.49        0.425       133.2      029.                          4133200400087 
 1.49        0.476       108.3      028.                          4133200400088 
 1.49        0.524       92.6       035.                          4133200400089 
 1.49        0.573       68.6       043.                          4133200400090 
 1.49        0.624       40.7       053.                          4133200400091 
 1.49        0.673       75.7       026.                          4133200400092 
 1.49        0.725       61.4       021.                          4133200400093 
 1.49        0.773       11.3       100.                          4133200400094 
 1.49        0.822       17.2       067.                          4133200400095 
 1.49        0.875       20.8       054.                          4133200400096 
 1.49        0.927       15.0       073.                          4133200400097 
 1.49        0.978       27.0       041.                          4133200400098 
 1.49        1.026       52.9       025.                          4133200400099 
 1.49        1.069       74.7       020.                          4133200400100 
 1.49        1.124       81.9       028.                          4133200400101 
 1.49        1.174       67.5       075.                          4133200400102 
 1.49        1.219       26.2       100.                          4133200400103 
 1.49        1.276       24.8       100.                          4133200400104 
 1.49        1.326       102.5      037.                          4133200400105 
 1.49        1.369       372.0      009.                          4133200400106 
 1.49        1.425       800.7      005.                          4133200400107 
 1.49        1.485       906.5      005.                          4133200400108 
 1.49        1.535       469.7      005.                          4133200400109 
 1.49        1.575       178.9      007.                          4133200400110 
 1.49        1.616       46.9       016.                          4133200400111 
 1.49        1.674       9.4        064.                          4133200400112 
 1.49        1.734       1.5        100.                          4133200400113 
 1.77        0.238      216.5       044.                          4133200400114 
 1.77        0.274      191.8       040.                          4133200400115 
 1.77        0.325      134.1       049.                          4133200400116 
 1.77        0.375      126.7       032.                          4133200400117 
 1.77        0.425      159.6       026.                          4133200400118 
 1.77        0.474      157.0       019.                          4133200400119 
 1.77        0.524      96.1        028.                          4133200400120 
 1.77        0.573      74.3        029.                          4133200400121 
 1.77        0.624      74.3        028.                          4133200400122 
 1.77        0.673      72.1        030.                          4133200400123 
 1.77        0.721      73.5        019.                          4133200400124 
 1.77        0.774      29.8        043.                          4133200400125 
 1.77        0.827      2.1         100.                          4133200400126 
 1.77        0.875      13.8        100.                          4133200400127 
 1.77        0.921      28.6        039.                          4133200400128 
 1.77        0.971      43.5        024.                          4133200400129 
 1.77        1.026      14.2        065.                          4133200400130 
 1.77        1.077      16.6        058.                          4133200400131 
 1.77        1.124      3.0         100.                          4133200400132 
 1.77        1.174      19.1        051.                          4133200400133 
 1.77        1.228      10.1        100.                          4133200400134 
 1.77        1.276      25.9        050.                          4133200400135 
 1.77        1.326      42.9        035.                          4133200400136 
 1.77        1.380      24.0        100.                          4133200400137 
 1.77        1.425      13.1        100.                          4133200400138 
 1.77        1.473      22.5        100.                          4133200400139 
 1.77        1.523      20.5        100.                          4133200400140 
 1.77        1.575      70.5        052.                          4133200400141 
 1.77        1.630      193.6       014.                          4133200400142 
 1.77        1.674      339.4       009.                          4133200400143 
 1.77        1.719      534.2       006.                          4133200400144 
 1.77        1.782      583.8       005.                          4133200400145 
 1.77        1.832      365.3       006.                          4133200400146 
 1.77        1.866      223.0       006.                          4133200400147 
 1.77        1.919       63.1       013.                          4133200400148 
 1.77        1.975        3.7       100.                          4133200400149 
 1.77        2.013        3.8       100.                          4133200400150 
 1.99        0.174      177.4       046.                          4133200400151 
 1.99        0.224      134.1       043.                          4133200400152 
 1.99        0.274      148.9       042.                          4133200400153 
 1.99        0.325      92.0        055.                          4133200400154 
 1.99        0.375      126.7       028.                          4133200400155 
 1.99        0.425      128.1       026.                          4133200400156 
 1.99        0.474      171.0       017.                          4133200400157 
 1.99        0.524      127.0       020.                          4133200400158 
 1.99        0.573      91.4        021.                          4133200400159 
 1.99        0.624      88.6        022.                          4133200400160 
 1.99        0.673      71.7        027.                          4133200400161 
 1.99        0.721      61.9        021.                          4133200400162 
 1.99        0.774      69.4        019.                          4133200400163 
 1.99        0.827      67.1        019.                          4133200400164 
 1.99        0.875      48.4        025.                          4133200400165 
 1.99        0.921      51.8        022.                          4133200400166 
 1.99        0.971      40.4        028.                          4133200400167 
 1.99        1.026      19.2        071.                          4133200400168 
 1.99        1.077      29.8        045.                          4133200400169 
 1.99        1.124      46.0        024.                          4133200400170 
 1.99        1.174      6.3         100.                          4133200400171 
 1.99        1.228      13.2        068.                          4133200400172 
 1.99        1.276      14.8        071.                          4133200400173 
 1.99        1.326      10.1        092.                          4133200400174 
 1.99        1.380      3.0         100.                          4133200400175 
 1.99        1.425      15.8        077.                          4133200400176 
 1.99        1.473      27.3        053.                          4133200400177 
 1.99        1.523      29.7        070.                          4133200400178 
 1.99        1.575      26.2        100.                          4133200400179 
 1.99        1.630      13.3        100.                          4133200400180 
 1.99        1.674      24.4        100.                          4133200400181 
 1.99        1.719      19.5        100.                          4133200400182 
 1.99        1.782      83.6        026.                          4133200400183 
 1.99        1.832      219.2       010.                          4133200400184 
 1.99        1.866      344.6       007.                          4133200400185 
 1.99        1.919      428.9       006.                          4133200400186 
 1.99        1.975      444.5       005.                          4133200400187 
 1.99        2.013      298.7       006.                          4133200400188 
 1.99        2.073      121.5       008.                          4133200400189 
 1.99        2.135      48.7        012.                          4133200400190 
 1.99        2.178      1.8         100.                          4133200400191 
 2.47        0.150       53.7       100.                          4133200400192 
 2.47        0.174       122.8      041.                          4133200400193 
 2.47        0.224       59.0       063.                          4133200400194 
 2.47        0.274       79.8       055.                          4133200400195 
 2.47        0.325       80.9       060.                          4133200400196 
 2.47        0.375       91.0       034.                          4133200400197 
 2.47        0.425       82.6       034.                          4133200400198 
 2.47        0.474       101.0      022.                          4133200400199 
 2.47        0.524       96.1       024.                          4133200400200 
 2.47        0.573       85.9       021.                          4133200400201 
 2.47        0.624       81.8       021.                          4133200400202 
 2.47        0.673       81.5       021.                          4133200400203 
 2.47        0.721       83.2       015.                          4133200400204 
 2.47        0.774       70.9       017.                          4133200400205 
 2.47        0.827       64.5       018.                          4133200400206 
 2.47        0.875       66.0       017.                          4133200400207 
 2.47        0.921       73.8       015.                          4133200400208 
 2.47        0.971       79.1       013.                          4133200400209 
 2.47        1.026       54.0       018.                          4133200400210 
 2.47        1.077       50.0       019.                          4133200400211 
 2.47        1.124       27.9       032.                          4133200400212 
 2.47        1.174       26.1       032.                          4133200400213 
 2.47        1.228       23.1       037.                          4133200400214 
 2.47        1.276       29.9       033.                          4133200400215 
 2.47        1.326       31.2       027.                          4133200400216 
 2.47        1.380       11.7       086.                          4133200400217 
 2.47        1.425       6.8        100.                          4133200400218 
 2.47        1.473       1.2        100.                          4133200400219 
 2.47        1.523       -1.6       100.                          4133200400220 
 2.47        1.575       2.7        100.                          4133200400221 
 2.47        1.630       6.3        100.                          4133200400222 
 2.47        1.674       3.7        100.                          4133200400223 
 2.47        1.719       6.1        100.                          4133200400224 
 2.47        1.782       10.8       074.                          4133200400225 
 2.47        1.832       33.3       026.                          4133200400226 
 2.47        1.866       29.4       032.                          4133200400227 
 2.47        1.919       24.5       050.                          4133200400228 
 2.47        1.975       21.2       083.                          4133200400229 
 2.47        2.013       19.9       100.                          4133200400230 
 2.47        2.073       9.0        100.                          4133200400231 
 2.47        2.135       18.3       100.                          4133200400232 
 2.47        2.178       31.1       062.                          4133200400233 
 2.47        2.222       24.5       061.                          4133200400234 
 2.47        2.268       69.7       020.                          4133200400235 
 2.47        2.316       121.7      013.                          4133200400236 
 2.47        2.364       192.6      009.                          4133200400237 
 2.47        2.415       216.8      007.                          4133200400238 
 2.47        2.467       218.5      007.                          4133200400239 
 2.47        2.520       151.6      007.                          4133200400240 
 2.47        2.576       86.8       009.                          4133200400241 
 2.47        2.633       19.0       026.                          4133200400242 
 2.47        2.693       1.8        100.                          4133200400243 
ENDDATA            231          0                                 4133200400244 
ENDSUBENT          243          0                                 4133200499999 
SUBENT        41332005   20090429                             41464133200500001 
BIB                  3          4                                 4133200500002 
REACTION   (93-NP-237(N,X)0-NN-1,,DA/DE)                          4133200500003 
ERR-ANALYS (ERR-S)  Relative Stat.Error                           4133200500004 
COMMENT    .The  emission neutron spectrum and "inelastic+elastic"4133200500005 
           spectrum for initial energy 0.99 MeV - 2.47 MeV.       4133200500006 
ENDBIB               4          0                                 4133200500007 
COMMON               1          3                                 4133200500008 
ANG                                                               4133200500009 
ADEG                                                              4133200500010 
120.                                                              4133200500011 
ENDCOMMON            3          0                                 4133200500012 
DATA                 4        630                                 4133200500013 
EN         E          DATA       ERR-S                            4133200500014 
MEV        MEV        MB/SR/MEV  PER-CENT                         4133200500015 
 0.99      0.241        252.6        050.                         4133200500016 
 0.99      0.274        226.6        048.                         4133200500017 
 0.99      0.325        193.7        048.                         4133200500018 
 0.99      0.375        179.1        031.                         4133200500019 
 0.99      0.425        212.7        022.                         4133200500020 
 0.99      0.474        212.7        018.                         4133200500021 
 0.99      0.524        268.1        015.                         4133200500022 
 0.99      0.573        287.5        012.                         4133200500023 
 0.99      0.624        324.4        011.                         4133200500024 
 0.99      0.673        268.4        017.                         4133200500025 
 0.99      0.721        222.3        024.                         4133200500026 
 0.99      0.774        146.3        105.                         4133200500027 
 0.99      0.827        217.0        119.                         4133200500028 
 0.99      0.875        446.5        030.                         4133200500029 
 0.99      0.921        1022.1       006.                         4133200500030 
 0.99      0.971        1680.9       003.                         4133200500031 
 0.99      1.026        1024.7       003.                         4133200500032 
 0.99      1.077        283.1        006.                         4133200500033 
 0.99      1.124        103.3        010.                         4133200500034 
 0.99      1.174        88.8         008.                         4133200500035 
 0.99      1.228        101.9        011.                         4133200500036 
 0.99      1.276        103.4        016.                         4133200500037 
 0.99      1.326        92.5         009.                         4133200500038 
 0.99      1.380        98.6         010.                         4133200500039 
 0.99      1.425        102.7        013.                         4133200500040 
 0.99      1.473        94.1         010.                         4133200500041 
 0.99      1.523        100.7        008.                         4133200500042 
 0.99      1.575        93.1         010.                         4133200500043 
 0.99      1.630        86.8         008.                         4133200500044 
 0.99      1.674        90.3         011.                         4133200500045 
 0.99      1.719        83.8         007.                         4133200500046 
 0.99      1.782        87.2         007.                         4133200500047 
 0.99      1.832        84.4         007.                         4133200500048 
 0.99      1.866        86.1         008.                         4133200500049 
 0.99      1.919        75.0         009.                         4133200500050 
 0.99      1.975        84.2         006.                         4133200500051 
 0.99      2.013        73.8         009.                         4133200500052 
 0.99      2.073        77.5         008.                         4133200500053 
 0.99      2.135        57.3         009.                         4133200500054 
 0.99      2.178        69.0         008.                         4133200500055 
 0.99      2.222        67.3         008.                         4133200500056 
 0.99      2.268        57.9         008.                         4133200500057 
 0.99      2.316        66.4         009.                         4133200500058 
 0.99      2.364        58.9         009.                         4133200500059 
 0.99      2.415        55.4         007.                         4133200500060 
 0.99      2.467        54.3         008.                         4133200500061 
 0.99      2.520        53.6         009.                         4133200500062 
 0.99      2.576        50.0         010.                         4133200500063 
 0.99      2.633        49.3         012.                         4133200500064 
 0.99      2.693        49.5         010.                         4133200500065 
 0.99      2.754        52.5         010.                         4133200500066 
 0.99      2.817        47.5         009.                         4133200500067 
 0.99      2.883        45.6         008.                         4133200500068 
 0.99      2.951        50.2         010.                         4133200500069 
 0.99      3.021        42.0         007.                         4133200500070 
 0.99      3.094        47.2         011.                         4133200500071 
 0.99      3.169        49.0         007.                         4133200500072 
 0.99      3.248        41.7         011.                         4133200500073 
 0.99      3.329        37.6         008.                         4133200500074 
 0.99      3.414        33.9         009.                         4133200500075 
 0.99      3.501        29.7         009.                         4133200500076 
 0.99      3.592        28.7         008.                         4133200500077 
 0.99      3.687        22.4         011.                         4133200500078 
 0.99      3.786        26.0         009.                         4133200500079 
 0.99      3.888        26.3         018.                         4133200500080 
 0.99      3.995        23.9         009.                         4133200500081 
 0.99      4.106        21.0         013.                         4133200500082 
 0.99      4.222        17.7         012.                         4133200500083 
 0.99      4.343        18.4         011.                         4133200500084 
 0.99      4.470        16.4         020.                         4133200500085 
 0.99      4.601        15.3         013.                         4133200500086 
 0.99      4.739        16.1         012.                         4133200500087 
 0.99      4.883        12.5         017.                         4133200500088 
 0.99      5.034        11.5         020.                         4133200500089 
 0.99      5.192        10.9         017.                         4133200500090 
 0.99      5.358        10.5         020.                         4133200500091 
 0.99      5.531        7.9          022.                         4133200500092 
 0.99      5.713        9.9          027.                         4133200500093 
 0.99      5.905        7.5          034.                         4133200500094 
 0.99      6.106        4.7          034.                         4133200500095 
 0.99      6.317        7.1          042.                         4133200500096 
 0.99      6.540        2.4          062.                         4133200500097 
 0.99      6.775        8.0          027.                         4133200500098 
 0.99      7.023        2.4          061.                         4133200500099 
 0.99      7.285        4.1          043.                         4133200500100 
 0.99      7.561        3.5          035.                         4133200500101 
 0.99      7.854        0.4          078.                         4133200500102 
 0.99      8.165        -1.3         082.                         4133200500103 
 0.99      8.494        0.6          062.                         4133200500104 
 0.99      8.843        1.2          087.                         4133200500105 
 1.00      0.176        312.3        043.                         4133200500106 
 1.00      0.224        236.3        044.                         4133200500107 
 1.00      0.274        234.3        042.                         4133200500108 
 1.00      0.325        197.1        050.                         4133200500109 
 1.00      0.375        200.1        030.                         4133200500110 
 1.00      0.425        233.3        021.                         4133200500111 
 1.00      0.474        243.6        015.                         4133200500112 
 1.00      0.524        277.7        014.                         4133200500113 
 1.00      0.573        303.2        011.                         4133200500114 
 1.00      0.624        318.7        011.                         4133200500115 
 1.00      0.673        270.0        017.                         4133200500116 
 1.00      0.721        217.2        027.                         4133200500117 
 1.00      0.774        200.3        090.                         4133200500118 
 1.00      0.827        312.7        080.                         4133200500119 
 1.00      0.875        587.6        018.                         4133200500120 
 1.00      0.921        1113.8       005.                         4133200500121 
 1.00      0.971        1514.7       003.                         4133200500122 
 1.00      1.026        835.8        003.                         4133200500123 
 1.00      1.077        208.2        006.                         4133200500124 
 1.00      1.124        104.9        008.                         4133200500125 
 1.00      1.174        100.3        008.                         4133200500126 
 1.00      1.228        95.0         007.                         4133200500127 
 1.00      1.276        97.3         011.                         4133200500128 
 1.00      1.326        102.0        011.                         4133200500129 
 1.00      1.380        97.2         013.                         4133200500130 
 1.00      1.425        86.7         013.                         4133200500131 
 1.00      1.473        85.9         010.                         4133200500132 
 1.00      1.523        86.2         010.                         4133200500133 
 1.00      1.575        76.7         008.                         4133200500134 
 1.00      1.630        87.2         011.                         4133200500135 
 1.00      1.674        69.1         008.                         4133200500136 
 1.00      1.719        80.5         009.                         4133200500137 
 1.00      1.782        91.2         011.                         4133200500138 
 1.00      1.832        89.8         012.                         4133200500139 
 1.00      1.866        76.4         007.                         4133200500140 
 1.00      1.919        72.0         011.                         4133200500141 
 1.00      1.975        63.8         007.                         4133200500142 
 1.00      2.013        63.6         007.                         4133200500143 
 1.00      2.073        67.8         007.                         4133200500144 
 1.00      2.135        65.0         011.                         4133200500145 
 1.00      2.178        67.2         008.                         4133200500146 
 1.00      2.222        67.6         012.                         4133200500147 
 1.00      2.268        60.5         008.                         4133200500148 
 1.00      2.316        65.5         007.                         4133200500149 
 1.00      2.364        60.2         007.                         4133200500150 
 1.00      2.415        61.7         010.                         4133200500151 
 1.00      2.467        62.3         007.                         4133200500152 
 1.00      2.520        56.3         007.                         4133200500153 
 1.00      2.576        58.0         010.                         4133200500154 
 1.00      2.633        53.1         008.                         4133200500155 
 1.00      2.693        50.6         009.                         4133200500156 
 1.00      2.754        51.5         008.                         4133200500157 
 1.00      2.817        51.2         011.                         4133200500158 
 1.00      2.883        41.5         009.                         4133200500159 
 1.00      2.951        50.0         009.                         4133200500160 
 1.00      3.021        45.7         014.                         4133200500161 
 1.00      3.094        44.0         011.                         4133200500162 
 1.00      3.169        40.1         008.                         4133200500163 
 1.00      3.248        36.9         009.                         4133200500164 
 1.00      3.329        30.0         010.                         4133200500165 
 1.00      3.414        36.3         015.                         4133200500166 
 1.00      3.501        33.8         010.                         4133200500167 
 1.00      3.592        30.5         010.                         4133200500168 
 1.00      3.687        25.6         011.                         4133200500169 
 1.00      3.786        29.0         008.                         4133200500170 
 1.00      3.888        27.4         015.                         4133200500171 
 1.00      3.995        29.8         017.                         4133200500172 
 1.00      4.106        21.9         012.                         4133200500173 
 1.00      4.222        22.9         012.                         4133200500174 
 1.00      4.343        18.3         015.                         4133200500175 
 1.00      4.470        16.6         013.                         4133200500176 
 1.00      4.601        19.6         021.                         4133200500177 
 1.00      4.739        13.0         015.                         4133200500178 
 1.00      4.883        12.8         017.                         4133200500179 
 1.00      5.034        16.2         013.                         4133200500180 
 1.00      5.192        12.7         020.                         4133200500181 
 1.00      5.358        15.8         038.                         4133200500182 
 1.00      5.531        10.1         019.                         4133200500183 
 1.00      5.713        7.8          045.                         4133200500184 
 1.00      5.905        7.9          031.                         4133200500185 
 1.00      6.106        4.1          044.                         4133200500186 
 1.00      6.317        4.4          051.                         4133200500187 
 1.00      6.540        4.2          051.                         4133200500188 
 1.00      6.775        3.7          042.                         4133200500189 
 1.00      7.023        2.1          077.                         4133200500190 
 1.00      7.285        2.9          077.                         4133200500191 
 1.00      7.561        0.2          077.                         4133200500192 
 1.00      7.854        0.3          077.                         4133200500193 
 1.00      8.165        2.5          050.                         4133200500194 
 1.00      8.494        1.1          072.                         4133200500195 
 1.46      0.175        285.5        030.                         4133200500196 
 1.46      0.224        173.3        027.                         4133200500197 
 1.46      0.274        188.5        027.                         4133200500198 
 1.46      0.325        192.7        029.                         4133200500199 
 1.46      0.375        283.0        014.                         4133200500200 
 1.46      0.425        247.1        015.                         4133200500201 
 1.46      0.474        200.8        013.                         4133200500202 
 1.46      0.524        186.7        016.                         4133200500203 
 1.46      0.573        192.4        013.                         4133200500204 
 1.46      0.624        201.3        009.                         4133200500205 
 1.46      0.673        195.2        009.                         4133200500206 
 1.46      0.721        177.7        006.                         4133200500207 
 1.46      0.774        148.5        008.                         4133200500208 
 1.46      0.827        134.9        009.                         4133200500209 
 1.46      0.875        150.0        007.                         4133200500210 
 1.46      0.921        148.6        007.                         4133200500211 
 1.46      0.971        162.4        006.                         4133200500212 
 1.46      1.026        185.8        007.                         4133200500213 
 1.46      1.077        202.8        008.                         4133200500214 
 1.46      1.124        178.0        018.                         4133200500215 
 1.46      1.174        152.3        039.                         4133200500216 
 1.46      1.228        154.9        047.                         4133200500217 
 1.46      1.276        208.6        027.                         4133200500218 
 1.46      1.326        396.9        008.                         4133200500219 
 1.46      1.380        741.6        006.                         4133200500220 
 1.46      1.425        1007.7       005.                         4133200500221 
 1.46      1.473        906.8        004.                         4133200500222 
 1.46      1.523        498.1        005.                         4133200500223 
 1.46      1.575        183.7        005.                         4133200500224 
 1.46      1.630        112.1        007.                         4133200500225 
 1.46      1.674        97.0         006.                         4133200500226 
 1.46      1.719        98.5         008.                         4133200500227 
 1.46      1.782        93.2         006.                         4133200500228 
 1.46      1.832        86.6         006.                         4133200500229 
 1.46      1.866        89.1         007.                         4133200500230 
 1.46      1.919        81.0         007.                         4133200500231 
 1.46      1.975        76.5         006.                         4133200500232 
 1.46      2.013        75.8         007.                         4133200500233 
 1.46      2.073        77.5         007.                         4133200500234 
 1.46      2.135        75.6         006.                         4133200500235 
 1.46      2.178        72.4         006.                         4133200500236 
 1.46      2.222        70.3         008.                         4133200500237 
 1.46      2.268        69.9         007.                         4133200500238 
 1.46      2.316        72.0         006.                         4133200500239 
 1.46      2.364        72.2         006.                         4133200500240 
 1.46      2.415        69.2         008.                         4133200500241 
 1.46      2.467        70.1         008.                         4133200500242 
 1.46      2.520        67.2         007.                         4133200500243 
 1.46      2.576        65.0         007.                         4133200500244 
 1.46      2.633        58.5         007.                         4133200500245 
 1.46      2.693        59.8         008.                         4133200500246 
 1.46      2.754        61.7         008.                         4133200500247 
 1.46      2.817        56.4         006.                         4133200500248 
 1.46      2.883        55.2         007.                         4133200500249 
 1.46      2.951        53.4         005.                         4133200500250 
 1.46      3.021        54.1         006.                         4133200500251 
 1.46      3.094        47.9         007.                         4133200500252 
 1.46      3.169        48.0         006.                         4133200500253 
 1.46      3.248        46.0         006.                         4133200500254 
 1.46      3.329        41.7         006.                         4133200500255 
 1.46      3.414        37.6         007.                         4133200500256 
 1.46      3.501        35.0         009.                         4133200500257 
 1.46      3.592        33.7         009.                         4133200500258 
 1.46      3.687        33.5         007.                         4133200500259 
 1.46      3.786        33.3         008.                         4133200500260 
 1.46      3.888        26.9         009.                         4133200500261 
 1.46      3.995        24.0         007.                         4133200500262 
 1.46      4.106        28.0         013.                         4133200500263 
 1.46      4.222        24.4         011.                         4133200500264 
 1.46      4.343        23.5         012.                         4133200500265 
 1.46      4.470        20.7         008.                         4133200500266 
 1.46      4.601        18.3         014.                         4133200500267 
 1.46      4.739        19.0         016.                         4133200500268 
 1.46      4.883        14.0         012.                         4133200500269 
 1.46      5.034        12.7         014.                         4133200500270 
 1.46      5.192        9.9          014.                         4133200500271 
 1.46      5.358        8.6          014.                         4133200500272 
 1.46      5.531        9.9          028.                         4133200500273 
 1.46      5.713        7.6          024.                         4133200500274 
 1.46      5.905        5.6          023.                         4133200500275 
 1.46      6.106        6.0          027.                         4133200500276 
 1.46      6.317        6.0          031.                         4133200500277 
 1.46      6.540        5.0          042.                         4133200500278 
 1.46      6.775        4.4          049.                         4133200500279 
 1.46      7.023        4.3          041.                         4133200500280 
 1.46      7.285        2.0          054.                         4133200500281 
 1.46      7.561        3.4          045.                         4133200500282 
 1.46      7.854        3.4          045.                         4133200500283 
 1.46      8.165        2.0          059.                         4133200500284 
 1.46      8.494        1.8          061.                         4133200500285 
 1.49      0.239        208.6        035.                         4133200500286 
 1.49      0.274        200.5        030.                         4133200500287 
 1.49      0.323        217.1        030.                         4133200500288 
 1.49      0.373        216.7        019.                         4133200500289 
 1.49      0.425        256.2        015.                         4133200500290 
 1.49      0.476        233.9        013.                         4133200500291 
 1.49      0.524        219.9        015.                         4133200500292 
 1.49      0.573        197.2        015.                         4133200500293 
 1.49      0.624        170.0        013.                         4133200500294 
 1.49      0.673        205.3        010.                         4133200500295 
 1.49      0.725        191.0        007.                         4133200500296 
 1.49      0.773        140.6        009.                         4133200500297 
 1.49      0.822        145.9        008.                         4133200500298 
 1.49      0.875        148.6        008.                         4133200500299 
 1.49      0.927        141.6        008.                         4133200500300 
 1.49      0.978        152.3        007.                         4133200500301 
 1.49      1.026        176.8        007.                         4133200500302 
 1.49      1.069        197.3        007.                         4133200500303 
 1.49      1.124        202.6        011.                         4133200500304 
 1.49      1.174        186.3        027.                         4133200500305 
 1.49      1.219        143.5        048.                         4133200500306 
 1.49      1.276        139.8        041.                         4133200500307 
 1.49      1.326        215.4        018.                         4133200500308 
 1.49      1.369        483.2        007.                         4133200500309 
 1.49      1.425        909.6        004.                         4133200500310 
 1.49      1.485        1012.7       004.                         4133200500311 
 1.49      1.535        573.8        004.                         4133200500312 
 1.49      1.575        281.3        004.                         4133200500313 
 1.49      1.616        147.5        005.                         4133200500314 
 1.49      1.674        107.4        006.                         4133200500315 
 1.49      1.734        96.9         007.                         4133200500316 
 1.49      1.782        98.2         008.                         4133200500317 
 1.49      1.832        91.5         006.                         4133200500318 
 1.49      1.883        93.3         007.                         4133200500319 
 1.49      1.919        87.6         007.                         4133200500320 
 1.49      1.975        89.0         007.                         4133200500321 
 1.49      2.033        85.4         007.                         4133200500322 
 1.49      2.072        85.6         007.                         4133200500323 
 1.49      2.114        83.1         010.                         4133200500324 
 1.49      2.156        75.2         009.                         4133200500325 
 1.49      2.223        72.0         007.                         4133200500326 
 1.49      2.292        72.5         006.                         4133200500327 
 1.49      2.340        70.2         007.                         4133200500328 
 1.49      2.389        71.4         006.                         4133200500329 
 1.49      2.441        71.4         006.                         4133200500330 
 1.49      2.493        64.3         006.                         4133200500331 
 1.49      2.548        66.1         009.                         4133200500332 
 1.49      2.604        66.4         007.                         4133200500333 
 1.49      2.663        60.8         006.                         4133200500334 
 1.49      2.723        65.3         008.                         4133200500335 
 1.49      2.785        55.5         007.                         4133200500336 
 1.49      2.850        51.4         006.                         4133200500337 
 1.49      2.916        48.2         008.                         4133200500338 
 1.49      2.985        47.3         007.                         4133200500339 
 1.49      3.057        44.5         007.                         4133200500340 
 1.49      3.131        44.5         008.                         4133200500341 
 1.49      3.208        42.7         006.                         4133200500342 
 1.49      3.288        38.6         007.                         4133200500343 
 1.49      3.371        35.4         007.                         4133200500344 
 1.49      3.457        35.5         010.                         4133200500345 
 1.49      3.546        35.9         007.                         4133200500346 
 1.49      3.639        32.4         010.                         4133200500347 
 1.49      3.736        32.3         009.                         4133200500348 
 1.49      3.837        29.6         007.                         4133200500349 
 1.49      3.941        26.5         010.                         4133200500350 
 1.49      4.050        25.8         007.                         4133200500351 
 1.49      4.164        23.3         016.                         4133200500352 
 1.49      4.282        18.8         019.                         4133200500353 
 1.49      4.406        18.0         008.                         4133200500354 
 1.49      4.535        18.1         008.                         4133200500355 
 1.49      4.670        15.0         018.                         4133200500356 
 1.49      4.810        15.1         025.                         4133200500357 
 1.49      4.958        11.1         017.                         4133200500358 
 1.49      5.112        13.7         019.                         4133200500359 
 1.49      5.274        11.3         032.                         4133200500360 
 1.49      5.443        9.4          017.                         4133200500361 
 1.49      5.621        8.1          021.                         4133200500362 
 1.49      5.808        7.6          020.                         4133200500363 
 1.49      6.004        7.2          015.                         4133200500364 
 1.49      6.210        7.4          046.                         4133200500365 
 1.49      6.427        6.5          048.                         4133200500366 
 1.49      6.656        2.4          037.                         4133200500367 
 1.49      6.897        1.7          061.                         4133200500368 
 1.49      7.152        3.0          046.                         4133200500369 
 1.49      7.421        1.9          053.                         4133200500370 
 1.49      7.706        1.1          065.                         4133200500371 
 1.49      8.007        1.9          036.                         4133200500372 
 1.49      8.327        0.7          081.                         4133200500373 
 1.49      8.666        2.1          078.                         4133200500374 
 1.49      9.026        1.4          060.                         4133200500375 
 1.77      0.238        333.2        028.                         4133200500376 
 1.77      0.274        314.0        024.                         4133200500377 
 1.77      0.325        262.5        025.                         4133200500378 
 1.77      0.375        259.9        016.                         4133200500379 
 1.77      0.425        296.4        014.                         4133200500380 
 1.77      0.474        296.5        010.                         4133200500381 
 1.77      0.524        237.6        012.                         4133200500382 
 1.77      0.573        217.3        010.                         4133200500383 
 1.77      0.624        218.2        009.                         4133200500384 
 1.77      0.673        216.3        010.                         4133200500385 
 1.77      0.721        217.7        007.                         4133200500386 
 1.77      0.774        173.6        007.                         4133200500387 
 1.77      0.827        145.2        010.                         4133200500388 
 1.77      0.875        156.0        009.                         4133200500389 
 1.77      0.921        169.7        007.                         4133200500390 
 1.77      0.971        183.2        006.                         4133200500391 
 1.77      1.026        152.2        006.                         4133200500392 
 1.77      1.077        152.8        006.                         4133200500393 
 1.77      1.124        137.4        007.                         4133200500394 
 1.77      1.174        151.5        006.                         4133200500395 
 1.77      1.228        140.3        007.                         4133200500396 
 1.77      1.276        154.0        008.                         4133200500397 
 1.77      1.326        168.8        009.                         4133200500398 
 1.77      1.380        147.4        019.                         4133200500399 
 1.77      1.425        134.4        034.                         4133200500400 
 1.77      1.473        141.6        044.                         4133200500401 
 1.77      1.523        137.2        043.                         4133200500402 
 1.77      1.575        184.7        020.                         4133200500403 
 1.77      1.630        305.1        009.                         4133200500404 
 1.77      1.674        448.8        006.                         4133200500405 
 1.77      1.719        641.4        005.                         4133200500406 
 1.77      1.782        688.0        005.                         4133200500407 
 1.77      1.832        467.1        004.                         4133200500408 
 1.77      1.866        323.1        004.                         4133200500409 
 1.77      1.919        160.7        005.                         4133200500410 
 1.77      1.975        98.7         005.                         4133200500411 
 1.77      2.013        96.9         005.                         4133200500412 
 1.77      2.073        95.5         006.                         4133200500413 
 1.77      2.135        86.4         005.                         4133200500414 
 1.77      2.178        96.5         006.                         4133200500415 
 1.77      2.222        87.1         007.                         4133200500416 
 1.77      2.268        82.2         006.                         4133200500417 
 1.77      2.316        80.8         005.                         4133200500418 
 1.77      2.364        75.6         005.                         4133200500419 
 1.77      2.415        79.9         008.                         4133200500420 
 1.77      2.467        69.9         006.                         4133200500421 
 1.77      2.520        65.5         006.                         4133200500422 
 1.77      2.576        66.6         006.                         4133200500423 
 1.77      2.633        68.5         005.                         4133200500424 
 1.77      2.693        65.2         006.                         4133200500425 
 1.77      2.754        62.5         006.                         4133200500426 
 1.77      2.817        62.4         006.                         4133200500427 
 1.77      2.883        60.5         006.                         4133200500428 
 1.77      2.951        61.7         005.                         4133200500429 
 1.77      3.021        54.9         007.                         4133200500430 
 1.77      3.094        54.2         006.                         4133200500431 
 1.77      3.169        52.2         006.                         4133200500432 
 1.77      3.248        46.2         006.                         4133200500433 
 1.77      3.329        44.6         006.                         4133200500434 
 1.77      3.414        38.0         006.                         4133200500435 
 1.77      3.501        36.5         007.                         4133200500436 
 1.77      3.592        38.5         007.                         4133200500437 
 1.77      3.687        34.8         006.                         4133200500438 
 1.77      3.786        30.9         008.                         4133200500439 
 1.77      3.888        32.2         006.                         4133200500440 
 1.77      3.995        31.0         006.                         4133200500441 
 1.77      4.106        31.3         008.                         4133200500442 
 1.77      4.222        26.9         009.                         4133200500443 
 1.77      4.343        23.3         008.                         4133200500444 
 1.77      4.470        21.5         009.                         4133200500445 
 1.77      4.601        17.4         010.                         4133200500446 
 1.77      4.739        17.1         010.                         4133200500447 
 1.77      4.883        19.1         013.                         4133200500448 
 1.77      5.034        11.0         012.                         4133200500449 
 1.77      5.192        15.7         009.                         4133200500450 
 1.77      5.358        8.5          018.                         4133200500451 
 1.77      5.531        8.8          014.                         4133200500452 
 1.77      5.713        10.1         012.                         4133200500453 
 1.77      5.905        7.2          022.                         4133200500454 
 1.77      6.106        6.1          017.                         4133200500455 
 1.77      6.317        6.5          020.                         4133200500456 
 1.77      6.540        4.9          022.                         4133200500457 
 1.77      6.775        4.6          025.                         4133200500458 
 1.77      7.023        6.7          033.                         4133200500459 
 1.77      7.285        3.5          031.                         4133200500460 
 1.77      7.561        5.0          041.                         4133200500461 
 1.77      7.854        1.0          063.                         4133200500462 
 1.77      8.165        0.6          092.                         4133200500463 
 1.77      8.494        1.4          067.                         4133200500464 
 1.77      8.843        0.1          110.                         4133200500465 
 1.99      0.174         281.8       029.                         4133200500466 
 1.99      0.224         248.5       023.                         4133200500467 
 1.99      0.274         271.2       023.                         4133200500468 
 1.99      0.325         220.5       023.                         4133200500469 
 1.99      0.375         260.0       014.                         4133200500470 
 1.99      0.425         265.0       013.                         4133200500471 
 1.99      0.474         310.7       009.                         4133200500472 
 1.99      0.524         268.8       010.                         4133200500473 
 1.99      0.573         234.5       008.                         4133200500474 
 1.99      0.624         232.7       008.                         4133200500475 
 1.99      0.673         216.2       009.                         4133200500476 
 1.99      0.721         206.3       006.                         4133200500477 
 1.99      0.774         213.5       006.                         4133200500478 
 1.99      0.827         210.4       006.                         4133200500479 
 1.99      0.875         190.9       006.                         4133200500480 
 1.99      0.921         193.1       006.                         4133200500481 
 1.99      0.971         180.3       006.                         4133200500482 
 1.99      1.026         157.5       009.                         4133200500483 
 1.99      1.077         166.3       008.                         4133200500484 
 1.99      1.124         180.8       006.                         4133200500485 
 1.99      1.174         139.1       006.                         4133200500486 
 1.99      1.228         143.7       006.                         4133200500487 
 1.99      1.276         143.3       007.                         4133200500488 
 1.99      1.326         136.4       007.                         4133200500489 
 1.99      1.380         126.7       009.                         4133200500490 
 1.99      1.425         137.5       009.                         4133200500491 
 1.99      1.473         146.7       010.                         4133200500492 
 1.99      1.523         146.7       014.                         4133200500493 
 1.99      1.575         140.8       023.                         4133200500494 
 1.99      1.630         125.2       035.                         4133200500495 
 1.99      1.674         134.1       032.                         4133200500496 
 1.99      1.719         127.0       025.                         4133200500497 
 1.99      1.782         188.1       012.                         4133200500498 
 1.99      1.832         321.3       007.                         4133200500499 
 1.99      1.866         445.1       006.                         4133200500500 
 1.99      1.919         526.8       005.                         4133200500501 
 1.99      1.975         539.9       004.                         4133200500502 
 1.99      2.013         392.2       005.                         4133200500503 
 1.99      2.073         212.3       005.                         4133200500504 
 1.99      2.135         136.7       004.                         4133200500505 
 1.99      2.178         87.8        006.                         4133200500506 
 1.99      2.222         75.0        006.                         4133200500507 
 1.99      2.268         84.6        005.                         4133200500508 
 1.99      2.316         83.2        005.                         4133200500509 
 1.99      2.364         75.7        006.                         4133200500510 
 1.99      2.415         79.8        005.                         4133200500511 
 1.99      2.467         76.7        005.                         4133200500512 
 1.99      2.520         70.4        006.                         4133200500513 
 1.99      2.576         70.0        005.                         4133200500514 
 1.99      2.633         65.0        006.                         4133200500515 
 1.99      2.693         62.5        006.                         4133200500516 
 1.99      2.754         63.8        006.                         4133200500517 
 1.99      2.817         60.4        006.                         4133200500518 
 1.99      2.883         56.3        006.                         4133200500519 
 1.99      2.951         59.7        005.                         4133200500520 
 1.99      3.021         55.5        006.                         4133200500521 
 1.99      3.094         57.4        006.                         4133200500522 
 1.99      3.169         52.1        006.                         4133200500523 
 1.99      3.248         46.9        005.                         4133200500524 
 1.99      3.329         47.1        006.                         4133200500525 
 1.99      3.414         40.6        006.                         4133200500526 
 1.99      3.501         41.6        006.                         4133200500527 
 1.99      3.592         38.1        006.                         4133200500528 
 1.99      3.687         34.8        006.                         4133200500529 
 1.99      3.786         31.0        006.                         4133200500530 
 1.99      3.888         32.1        006.                         4133200500531 
 1.99      3.995         29.7        007.                         4133200500532 
 1.99      4.106         27.7        007.                         4133200500533 
 1.99      4.222         25.9        007.                         4133200500534 
 1.99      4.343         21.6        008.                         4133200500535 
 1.99      4.470         21.3        008.                         4133200500536 
 1.99      4.601         19.0        009.                         4133200500537 
 1.99      4.739         19.6        009.                         4133200500538 
 1.99      4.883         13.7        011.                         4133200500539 
 1.99      5.034         13.5        009.                         4133200500540 
 1.99      5.192         9.6         014.                         4133200500541 
 1.99      5.358         11.9        012.                         4133200500542 
 1.99      5.531         9.8         014.                         4133200500543 
 1.99      5.713         10.5        013.                         4133200500544 
 1.99      5.905         8.9         013.                         4133200500545 
 1.99      6.106         8.0         014.                         4133200500546 
 1.99      6.317         7.7         014.                         4133200500547 
 1.99      6.540         4.4         020.                         4133200500548 
 1.99      6.775         4.5         021.                         4133200500549 
 1.99      7.023         5.7         020.                         4133200500550 
 1.99      7.285         3.4         025.                         4133200500551 
 1.99      7.561         3.4         026.                         4133200500552 
 1.99      7.854         2.0         047.                         4133200500553 
 1.99      8.165         2.5         028.                         4133200500554 
 1.99      8.494         0.6         095.                         4133200500555 
 2.47      0.150       155.5        100.                          4133200500556 
 2.47      0.174       230.6        022.                          4133200500557 
 2.47      0.224       177.2        021.                          4133200500558 
 2.47      0.274       206.0        021.                          4133200500559 
 2.47      0.325       213.5        023.                          4133200500560 
 2.47      0.375       228.6        013.                          4133200500561 
 2.47      0.425       224.0        013.                          4133200500562 
 2.47      0.474       245.3        009.                          4133200500563 
 2.47      0.524       242.6        009.                          4133200500564 
 2.47      0.573       233.9        008.                          4133200500565 
 2.47      0.624       230.7        007.                          4133200500566 
 2.47      0.673       230.8        008.                          4133200500567 
 2.47      0.721       232.5        005.                          4133200500568 
 2.47      0.774       219.9        005.                          4133200500569 
 2.47      0.827       212.8        005.                          4133200500570 
 2.47      0.875       213.3        005.                          4133200500571 
 2.47      0.921       220.0        005.                          4133200500572 
 2.47      0.971       223.9        005.                          4133200500573 
 2.47      1.026       197.2        005.                          4133200500574 
 2.47      1.077       191.4        005.                          4133200500575 
 2.47      1.124       167.5        005.                          4133200500576 
 2.47      1.174       163.6        005.                          4133200500577 
 2.47      1.228       158.4        005.                          4133200500578 
 2.47      1.276       163.1        006.                          4133200500579 
 2.47      1.326       162.0        005.                          4133200500580 
 2.47      1.380       140.1        007.                          4133200500581 
 2.47      1.425       133.0        008.                          4133200500582 
 2.47      1.473       125.1        009.                          4133200500583 
 2.47      1.523       119.9        011.                          4133200500584 
 2.47      1.575       121.6        010.                          4133200500585 
 2.47      1.630       122.5        008.                          4133200500586 
 2.47      1.674       117.7        007.                          4133200500587 
 2.47      1.719       117.8        007.                          4133200500588 
 2.47      1.782       119.4        007.                          4133200500589 
 2.47      1.832       139.4        006.                          4133200500590 
 2.47      1.866       133.9        007.                          4133200500591 
 2.47      1.919       126.3        010.                          4133200500592 
 2.47      1.975       120.4        015.                          4133200500593 
 2.47      2.013       117.3        019.                          4133200500594 
 2.47      2.073       103.5        025.                          4133200500595 
 2.47      2.135       109.9        022.                          4133200500596 
 2.47      2.178       120.7        016.                          4133200500597 
 2.47      2.222       112.0        013.                          4133200500598 
 2.47      2.268       155.1        009.                          4133200500599 
 2.47      2.316       205.1        008.                          4133200500600 
 2.47      2.364       273.8        006.                          4133200500601 
 2.47      2.415       295.9        005.                          4133200500602 
 2.47      2.467       295.4        005.                          4133200500603 
 2.47      2.520       226.3        005.                          4133200500604 
 2.47      2.576       159.3        005.                          4133200500605 
 2.47      2.633       89.2         006.                          4133200500606 
 2.47      2.693       69.7         005.                          4133200500607 
 2.47      2.754       71.2         005.                          4133200500608 
 2.47      2.817       64.4         005.                          4133200500609 
 2.47      2.883       61.4         005.                          4133200500610 
 2.47      2.951       59.5         005.                          4133200500611 
 2.47      3.021       55.4         005.                          4133200500612 
 2.47      3.094       53.6         005.                          4133200500613 
 2.47      3.169       53.0         005.                          4133200500614 
 2.47      3.248       47.5         005.                          4133200500615 
 2.47      3.329       48.0         005.                          4133200500616 
 2.47      3.414       43.4         006.                          4133200500617 
 2.47      3.501       46.1         005.                          4133200500618 
 2.47      3.592       41.4         005.                          4133200500619 
 2.47      3.687       40.1         006.                          4133200500620 
 2.47      3.786       35.2         006.                          4133200500621 
 2.47      3.888       32.4         006.                          4133200500622 
 2.47      3.995       31.7         006.                          4133200500623 
 2.47      4.106       31.6         006.                          4133200500624 
 2.47      4.222       28.8         006.                          4133200500625 
 2.47      4.343       23.8         007.                          4133200500626 
 2.47      4.470       20.7         008.                          4133200500627 
 2.47      4.601       22.1         007.                          4133200500628 
 2.47      4.739       17.8         009.                          4133200500629 
 2.47      4.883       16.6         009.                          4133200500630 
 2.47      5.034       13.5         010.                          4133200500631 
 2.47      5.192       13.8         008.                          4133200500632 
 2.47      5.358       10.9         012.                          4133200500633 
 2.47      5.531       8.1          015.                          4133200500634 
 2.47      5.713       10.5         012.                          4133200500635 
 2.47      5.905       7.7          015.                          4133200500636 
 2.47      6.106       8.6          012.                          4133200500637 
 2.47      6.317       6.6          012.                          4133200500638 
 2.47      6.540       5.4          020.                          4133200500639 
 2.47      6.775       4.9          022.                          4133200500640 
 2.47      7.023       4.4          023.                          4133200500641 
 2.47      7.285       1.8          049.                          4133200500642 
 2.47      7.561       1.0          073.                          4133200500643 
 2.47      7.854       3.1          027.                          4133200500644 
 2.47      8.165       3.2          016.                          4133200500645 
ENDDATA            632          0                                 4133200500646 
ENDSUBENT          645          0                                 4133200599999 
SUBENT        41332006   20090429                             41464133200600001 
BIB                  3          4                                 4133200600002 
REACTION   (93-NP-237(N,INL)93-NP-237,,DA)                        4133200600003 
COMMENT     The inelastic cross section integrated over the       4133200600004 
            energy range from 0.25 MeV to (E0-0.25) MeV.          4133200600005 
ERR-ANALYS (ERR-S)  Relative Stat.Error                           4133200600006 
ENDBIB               4          0                                 4133200600007 
COMMON               1          3                                 4133200600008 
ANG                                                               4133200600009 
ADEG                                                              4133200600010 
120.                                                              4133200600011 
ENDCOMMON            3          0                                 4133200600012 
DATA                 3          7                                 4133200600013 
EN         DATA       ERR-S                                       4133200600014 
MEV        MB/SR      MB/SR                                       4133200600015 
0.99        63.8       9.1                                        4133200600016 
1.00        70.4       9.2                                        4133200600017 
1.46        57.6       6.0                                        4133200600018 
1.49        59.1       6.4                                        4133200600019 
1.77        73.8       7.4                                        4133200600020 
1.99        83.8       6.8                                        4133200600021 
2.47        90.5       6.1                                        4133200600022 
ENDDATA              9          0                                 4133200600023 
ENDSUBENT           22          0                                 4133200699999 
SUBENT        41332007   20090429                             41464133200700001 
BIB                  3          6                                 4133200700002 
REACTION   (93-NP-237(N,TOT),,SIG)                                4133200700003 
INC-SOURCE (CF252)                                                4133200700004 
ERR-ANALYS (ERR-T)  Relative total error                          4133200700005 
            ERR-S   Statistical error 1. -20.% .                  4133200700006 
           (ERR-2)  Error due to nuclear density in samples       4133200700007 
           (ERR-3)  Max error caused by spectrometer calibration  4133200700008 
ENDBIB               6          0                                 4133200700009 
COMMON               2          3                                 4133200700010 
ERR-2      ERR-3                                                  4133200700011 
PER-CENT   PER-CENT                                               4133200700012 
    1.3       2.2                                                 4133200700013 
ENDCOMMON            3          0                                 4133200700014 
DATA                 3         61                                 4133200700015 
EN         DATA       ERR-T                                       4133200700016 
MEV        B          PER-CENT                                    4133200700017 
 0.5        8.39       03.5                                       4133200700018 
 0.6        7.68       02.8                                       4133200700019 
 0.7        7.43       02.9                                       4133200700020 
 0.8        7.14       04.5                                       4133200700021 
 0.9        6.98       04.4                                       4133200700022 
 1.0        6.90       04.4                                       4133200700023 
 1.1        6.65       04.4                                       4133200700024 
 1.2        6.56       04.4                                       4133200700025 
 1.3        6.75       04.3                                       4133200700026 
 1.4        6.80       04.3                                       4133200700027 
 1.5        6.78       04.4                                       4133200700028 
 1.6        6.91       04.4                                       4133200700029 
 1.7        6.74       04.6                                       4133200700030 
 1.8        6.77       04.7                                       4133200700031 
 1.9        7.02       04.4                                       4133200700032 
 2.0        7.21       04.3                                       4133200700033 
 2.1        7.18       04.9                                       4133200700034 
 2.2        7.16       05.4                                       4133200700035 
 2.3        7.30       05.3                                       4133200700036 
 2.4        7.36       05.2                                       4133200700037 
 2.5        7.38       05.2                                       4133200700038 
 2.6        7.44       05.2                                       4133200700039 
 2.7        7.49       05.1                                       4133200700040 
 2.8        7.60       05.8                                       4133200700041 
 2.9        7.65       05.8                                       4133200700042 
 3.0        7.62       05.8                                       4133200700043 
 3.1        7.73       05.1                                       4133200700044 
 3.2        7.67       05.2                                       4133200700045 
 3.3        7.66       05.2                                       4133200700046 
 3.4        7.73       05.2                                       4133200700047 
 3.5        7.81       05.3                                       4133200700048 
 3.6        7.90       05.3                                       4133200700049 
 3.7        7.91       05.3                                       4133200700050 
 3.8        7.73       05.5                                       4133200700051 
 3.9        7.77       05.5                                       4133200700052 
 4.0        7.67       05.6                                       4133200700053 
 4.2        7.62       05.8                                       4133200700054 
 4.4        7.66       05.9                                       4133200700055 
 4.6        7.53       06.2                                       4133200700056 
 4.8        7.41       06.4                                       4133200700057 
 5.0        7.40       06.7                                       4133200700058 
 5.2        7.32       07.1                                       4133200700059 
 5.4        7.34       07.3                                       4133200700060 
 5.6        6.94       08.1                                       4133200700061 
 5.8        6.98       08.4                                       4133200700062 
 6.0        6.93       08.8                                       4133200700063 
 6.2        7.00       09.1                                       4133200700064 
 6.4        6.85       09.8                                       4133200700065 
 6.6        6.42       10.9                                       4133200700066 
 6.8        6.47       11.3                                       4133200700067 
 7.0        6.32       12.2                                       4133200700068 
 7.2        6.39       12.8                                       4133200700069 
 7.4        6.29       13.3                                       4133200700070 
 7.6        6.50       13.6                                       4133200700071 
 7.8        6.41       14.4                                       4133200700072 
 8.0        6.06       16.2                                       4133200700073 
 8.2        5.79       18.0                                       4133200700074 
 8.4        6.13       18.1                                       4133200700075 
 8.6        5.96       19.6                                       4133200700076 
 8.8        5.78       21.8                                       4133200700077 
 9.0        5.48       24.7                                       4133200700078 
ENDDATA             63          0                                 4133200700079 
ENDSUBENT           78          0                                 4133200799999 
ENDENTRY             7          0                                 4133299999999 
