ENTRY            41404   20131226                             41624140400000001 
SUBENT        41404001   20131226                             41624140400100001 
BIB                 14         32                                 4140400100002 
TITLE       Multipole mixtures in gamma-transitions in 158GD from 4140400100003 
            the (n,n'gamma) reaction                              4140400100004 
AUTHOR     (L.I.Govor, A.M.Demidov, I.V.Mikhailov)                4140400100005 
INSTITUTE  (4RUSKUR)                                              4140400100006 
REFERENCE  (J,YF,64,(7),1329,200107)  Main reference, data given  4140400100007 
           (J,PAN,64,1254,2001) Engl.translation of YF,64,(7),13294140400100008 
REL-REF    (M,,A.M.Demidov,B,DEMIDOV,,70,1986) Exp. details       4140400100009 
           (M,41234001,L.I.Govor+,J,YF,59,(10),1733,199610)       4140400100010 
                                         experimental details     4140400100011 
           (M,,L.I.Govor+,J,PAN,59,1675,1996)                     4140400100012 
            Engl.translation of J,YF,59,(10),1733,1996            4140400100013 
FACILITY   (REAC,4RUSKUR)  IR-8 reactor of 4RUSKUR                4140400100014 
INC-SOURCE (REAC)                                                 4140400100015 
INC-SPECT   Fast neutron spectrum of the thermal reactor .        4140400100016 
DETECTOR   (HPGE)   Germanium detectors, efficiency 10%,          4140400100017 
                    resolution 2.1 keV at E-Gamma=1.3 MeV         4140400100018 
           (COMPL)  Compton polarimeter for polarization          4140400100019 
                    measurement                                   4140400100020 
MONITOR    (64-GD-158(N,INL)64-GD-158,,SPC) At E-Gamma=1663.54keV 4140400100021 
COMMENT           Gamma energy was measured at the angle 90 deg   4140400100022 
                  relative to neutron beam, intensity measured at 4140400100023 
                  125 deg.                                        4140400100024 
SAMPLE     .Gadolinium oxide Gd(2)O(3), mass 23. gram,            4140400100025 
            Gd-158 enrichment is 97.3 % , thickness 1.13 gram/cm2 4140400100026 
            Gd-155 content is 0.17%, Gd-156 content is 0.33%,     4140400100027 
            Gd-157 content is 0.78%, Gd-160 content is 1.42%.     4140400100028 
ERR-ANALYS (DATA-ERR)  Error not specified                        4140400100029 
HISTORY    (20020712C)  + + Compiled at the Centre - CJD + +      4140400100030 
           (20020717U) Last checking has been done.               4140400100031 
           (20131226A) Refs. of Engl.translations were added.     4140400100032 
           Upper -> lower case corrections.                       4140400100033 
           BIB information was updated.                           4140400100034 
ENDBIB              32          0                                 4140400100035 
COMMON               2          3                                 4140400100036 
EN-DUMMY   E-NRM                                                  4140400100037 
EV         KEV                                                    4140400100038 
     1.E+06   1663.54                                             4140400100039 
ENDCOMMON            3          0                                 4140400100040 
ENDSUBENT           39          0                                 4140400199999 
SUBENT        41404002   20131226                             41624140400200001 
BIB                  5         17                                 4140400200002 
REACTION   ((64-GD-158(N,INL)64-GD-158,,SPC,,FIS)//               4140400200003 
           (64-GD-158(N,INL)64-GD-158,,SPC,,FIS))  Relative to    4140400200004 
            181.94 kev gamma line taken for 100. Gamma-energy     4140400200005 
            measured at 90 degrees, gamma intensity - at 125      4140400200006 
            degrees relative to neutron beam .                    4140400200007 
           DATA and DATA-ERR were multiplied by 1.E-2 by compiler.4140400200008 
EN-SEC     (E-DN,G)                                               4140400200009 
           (E-NM,G)                                               4140400200010 
            LVL-INI initial level of 64-GD-158                    4140400200011 
ERR-ANALYS  E-DN-ERR -    Error in denominator gamma-energy       4140400200012 
FLAG       (1.)     Initial energy known uncertainly              4140400200013 
           (2.)     Multiplet                                     4140400200014 
           (3.)     Uncertain multiplet                           4140400200015 
           (4.)     Approximate value                             4140400200016 
           (5.)     Approximate gamma energy                      4140400200017 
           (6.)     Line from 158GD + 159GD                       4140400200018 
STATUS     (TABLE) Table 1 of J,YF,64,(7),1329,2001               4140400200019 
ENDBIB              17          0                                 4140400200020 
COMMON               2          3                                 4140400200021 
E-DN       E-DN-ERR                                               4140400200022 
KEV        KEV                                                    4140400200023 
   181.94    0.02                                                 4140400200024 
ENDCOMMON            3          0                                 4140400200025 
DATA                 9        356                                 4140400200026 
E-NM       E-NM-ERR   DATA       DATA-ERR   DATA-MAX   LVL-INI    4140400200027 
LVL-INI    FLAG       FLAG                                        4140400200028 
KEV        KEV        NO-DIM     NO-DIM     NO-DIM     KEV        4140400200029 
KEV        NO-DIM     NO-DIM                                      4140400200030 
 135.25          0.14    0.26 E-2   0.02 E-2               1159.  4140400200031 
                                                                  4140400200032 
 155.09          0.18    0.20 E-2   0.02 E-2               1636.  4140400200033 
               1.                                                 4140400200034 
 181.94          0.02    1.                                 261.  4140400200035 
                                                                  4140400200036 
 212.98          0.06    0.62 E-2   0.04 E-2               1372.  4140400200037 
                                                                  4140400200038 
 218.01          0.07    0.49 E-2   0.04 E-2               1717.  4140400200039 
                                                                  4140400200040 
 230.14          0.12    0.21 E-2   0.02 E-2               1407.  4140400200041 
                                                                  4140400200042 
 235.42          0.09    0.48 E-2   0.04 E-2               1717.  4140400200043 
                                                                  4140400200044 
 255.65          0.02    3.18 E-2   0.22 E-2               1636.  4140400200045 
                                                                  4140400200046 
 277.54          0.02   17.0  E-2   1.2  E-2                539.  4140400200047 
                                                                  4140400200048 
 282.75          0.08    0.38 E-2   0.03 E-2               1260.  4140400200049 
                                                                  4140400200050 
 301.1           0.2                            0.08       2018.  4140400200051 
                                                                  4140400200052 
 314.9           0.2                            0.08       1814.  4140400200053 
                                                                  4140400200054 
 332.65          0.11    0.115E-2   0.014E-2               1814.  4140400200055 
                                                                  4140400200056 
 336.21          0.05    0.51 E-2   0.04 E-2               1717.  4140400200057 
                                                                  4140400200058 
 339.14          0.10    0.20 E-2   0.02 E-2               1381.  4140400200059 
                                                                  4140400200060 
 341.75          0.14    0.104E-2   0.014E-2                      4140400200061 
                                                                  4140400200062 
 365.10          0.03    1.87 E-2   0.16 E-2                904.  4140400200063 
  1407.            2.                                             4140400200064 
 408.63          0.12    0.32 E-2   0.03 E-2                      4140400200065 
                                                                  4140400200066 
 410.75          0.19    0.20 E-2   0.02 E-2                      4140400200067 
                                                                  4140400200068 
 417.90          0.11    0.20 E-2   0.02 E-2               1917.  4140400200069 
                                                                  4140400200070 
 435.48          0.14    0.30 E-2   0.03 E-2               1917.  4140400200071 
                                                                  4140400200072 
 439.21          0.07    0.45 E-2   0.04 E-2                      4140400200073 
                                                                  4140400200074 
 444.87          0.25    0.080E-2   0.016E-2                      4140400200075 
                                                                  4140400200076 
 455.1           0.3     0.109E-2   0.013E-2               1954.  4140400200077 
              1.                                                  4140400200078 
 466.65          0.13    0.19 E-2   0.02 E-2               2260.  4140400200079 
                                                                  4140400200080 
 475.64          0.15    0.15 E-2   0.02 E-2               1452.  4140400200081 
   1517.           2.        1.                                   4140400200082 
 479.71          0.09    0.22 E-2   0.02 E-2               1743.  4140400200083 
                                                                  4140400200084 
 502.85          0.12    0.27 E-2   0.02 E-2               1862.  4140400200085 
              4.                                                  4140400200086 
 518.55          0.18    0.30 E-2   0.03 E-2               2018.  4140400200087 
               4.                                                 4140400200088 
 524.77          0.17    0.116E-2   0.013E-2                      4140400200089 
                                                                  4140400200090 
 528.13          0.04    0.67 E-2   0.05 E-2               1792.  4140400200091 
      1794.        2.                                             4140400200092 
 537.05          0.08    0.51 E-2   0.04 E-2                      4140400200093 
                                                                  4140400200094 
 539.58          0.05    1.05 E-2   0.08 E-2               1920.  4140400200095 
                                                                  4140400200096 
 546.4           0.3     0.057E-2   0.011E-2                      4140400200097 
                                                                  4140400200098 
 558.20          0.10    0.28 E-2   0.02 E-2                      4140400200099 
                                                                  4140400200100 
 587.43          0.15    0.26 E-2   0.02 E-2                      4140400200101 
                                                                  4140400200102 
 592.87          0.17    0.0                               1856.  4140400200103 
              5.                                                  4140400200104 
 606.52          0.04    1.40 E-2   0.11 E-2               1794.  4140400200105 
                                                                  4140400200106 
 619.4           0.2     0.134E-2   0.16 E-2               1978.  4140400200107 
                                                                  4140400200108 
 622.5           0.3     0.031E-2   0.010E-2                      4140400200109 
                                                                  4140400200110 
 631.31          0.12    0.16 E-2   0.02 E-2               1895.  4140400200111 
                                                                  4140400200112 
 637.46          0.03    1.57 E-2   0.12 E-2               1176.  4140400200113 
                                                                  4140400200114 
 646.47          0.11    0.22 E-2   0.02 E-2               2049.  4140400200115 
                                                                  4140400200116 
 654.1           0.2     0.18 E-2   0.02 E-2                      4140400200117 
                                                                  4140400200118 
 670.0           0.4     0.099E-2   0.017E-2               1856.  4140400200119 
                                                                  4140400200120 
 672.30          0.07    0.72 E-2   0.06 E-2                      4140400200121 
                                                                  4140400200122 
 674.31          0.08    0.52 E-2   0.04 E-2               1862.  4140400200123 
                                                                  4140400200124 
 676.3           0.2     0.162E-2   0.019E-2               1941.  4140400200125 
              6.                                                  4140400200126 
 680.85          0.11    0.35 E-2   0.03 E-2               2084.  4140400200127 
                                                                  4140400200128 
 688.74          0.05    1.07 E-2   0.08 E-2               1952.  4140400200129 
      1954.        2.                                             4140400200130 
 698.88          0.14    0.33 E-2   0.03 E-2               1964.  4140400200131 
                                                                  4140400200132 
 701.2           0.3     0.19 E-2   0.02 E-2                      4140400200133 
                                                                  4140400200134 
 707.82          0.07    0.53 E-2   0.04 E-2               1895.  4140400200135 
                                                                  4140400200136 
 713.31          0.10    0.36 E-2   0.03 E-2                      4140400200137 
                                                                  4140400200138 
 725.3           0.4     0.068E-2   0.012E-2               1901.  4140400200139 
                                                                  4140400200140 
 735.36          0.07    0.61 E-2   0.05 E-2                      4140400200141 
                                                                  4140400200142 
 743.05          0.05    1.01 E-2   0.08 E-2               1930.  4140400200143 
                                                                  4140400200144 
 750.06          0.04    1.05 E-2   0.08 E-2               1792.  4140400200145 
                                                                  4140400200146 
 768.60          0.10    0.58 E-2   0.05 E-2               2034.  4140400200147 
                                                                  4140400200148 
 771.9           0.2     0.18 E-2   0.02 E-2                      4140400200149 
                                                                  4140400200150 
 777.34          0.17    0.161E-2   0.015E-2               1964.  4140400200151 
                                                                  4140400200152 
 780.16          0.02    7.0  E-2   0.5  E-2               1042.  4140400200153 
                                                                  4140400200154 
 782.65          0.08    0.50 E-2   0.04 E-2               1941.  4140400200155 
                                                                  4140400200156 
 785.66          0.13    0.21 E-2   0.02 E-2               2049.  4140400200157 
                                                                  4140400200158 
 790.97          0.12    0.35 E-2   0.03 E-2               1978.  4140400200159 
                                                                  4140400200160 
 795.0           0.2     0.27 E-2   0.02 E-2               1954.  4140400200161 
                                                                  4140400200162 
 800.1           0.5     0.054E-2   0.011E-2                      4140400200163 
                                                                  4140400200164 
 808.9           0.4                            0.05              4140400200165 
                                                                  4140400200166 
 814.69          0.08    0.43 E-2   0.04 E-2               1792.  4140400200167 
                                                                  4140400200168 
 816.45          0.12    0.31 E-2   0.03 E-2               1794.  4140400200169 
                                                                  4140400200170 
 820.01          0.06    0.67 E-2   0.06 E-2               1861.  4140400200171 
      2984.        2.                                             4140400200172 
 824.10          0.06    0.73 E-2   0.06 E-2               1848.  4140400200173 
                                                                  4140400200174 
 832.97          0.05    1.08 E-2   0.09 E-2               1372.  4140400200175 
      1856.        2.                                             4140400200176 
 836.3           0.3     0.137E-2   0.020E-2                      4140400200177 
                                                                  4140400200178 
 843.4           0.3     0.047E-2   0.010E-2                      4140400200179 
                                                                  4140400200180 
 847.13          0.18    0.23 E-2   0.03 E-2               2034.  4140400200181 
              1.                                                  4140400200182 
 851.15          0.05    0.89 E-2   0.07 E-2                      4140400200183 
                                                                  4140400200184 
 852.84          0.05    0.96 E-2   0.08 E-2               1894.  4140400200185 
                                                                  4140400200186 
 856.2           0.3     0.16 E-2   0.02 E-2                      4140400200187 
                                                                  4140400200188 
 859.83          0.11    0.45 E-2   0.04 E-2               1901.  4140400200189 
                                                                  4140400200190 
 865.94          0.11    0.0                                      4140400200191 
                                                                  4140400200192 
 867.90          0.04                          1.34        1407.  4140400200193 
                                                                  4140400200194 
 870.74          0.03    2.41 E-2   0.19 E-2               1848.  4140400200195 
      1894.        2.                                             4140400200196 
 874.9           0.2     0.23 E-2   0.02 E-2               2034.  4140400200197 
                                                                  4140400200198 
 879.28          0.05    0.80 E-2   0.06 E-2               1856.  4140400200199 
                                                                  4140400200200 
 884.7           0.3     0.138E-2   0.019E-2               1862.  4140400200201 
                                                                  4140400200202 
 887.51          0.14    0.22 E-2   0.02 E-2               2084.  4140400200203 
                                                                  4140400200204 
 891.9           0.3     0.030E-2   0.010E-2                      4140400200205 
                                                                  4140400200206 
 897.59          0.02   19.6  E-2   0.8  E-2                977.  4140400200207 
      1159.   2.                                                  4140400200208 
 902.38          0.04    0.88 E-2   0.07 E-2               2090.  4140400200209 
                                                                  4140400200210 
 906.64          0.10    0.25 E-2   0.02 E-2               1930.  4140400200211 
                                                                  4140400200212 
 915.00          0.02    5.2  E-2   0.4  E-2               1176.  4140400200213 
                                                                  4140400200214 
 917.54          0.03    1.34 E-2   0.11 E-2               1894.  4140400200215 
      1895.   2.                                                  4140400200216 
 922.65          0.08    0.41 E-2   0.04 E-2               1964.  4140400200217 
                                                                  4140400200218 
 925.52          0.18    0.178E-2   0.021E-2               1187.  4140400200219 
                                                                  4140400200220 
 928.3           0.2     0.074E-2   0.016E-2                      4140400200221 
                                                                  4140400200222 
 934.2           0.5     0.085E-2   0.018E-2                      4140400200223 
                                                                  4140400200224 
 936.1           0.3     0.057E-2   0.016E-2               1978.  4140400200225 
                                                                  4140400200226 
 944.13          0.02   23.4  E-2   1.8  E-2               1024.  4140400200227 
                                                                  4140400200228 
 948.51          0.18    0.190E-2   0.018E-2                      4140400200229 
                                                                  4140400200230 
 953.34          0.09    0.31 E-2   0.03 E-2                      4140400200231 
                                                                  4140400200232 
 955.05          0.16    0.28 E-2   0.03 E-2                      4140400200233 
                                                                  4140400200234 
 962.08          0.02   14.9  E-2   1.0  E-2               1042.  4140400200235 
                                                                  4140400200236 
 977.13          0.02   13.2  E-2   0.8  E-2                977.  4140400200237 
                                                                  4140400200238 
 982.50          0.10    0.29 E-2   0.03 E-2                      4140400200239 
                                                                  4140400200240 
 987.50          0.08    0.38 E-2   0.03 E-2               1964.  4140400200241 
              1.                                                  4140400200242 
 994.29          0.11    0.28 E-2   0.02 E-2                      4140400200243 
                                                                  4140400200244 
1003.95          0.02    2.61 E-2   0.17 E-2               1265.  4140400200245 
                                                                  4140400200246 
1007.25          0.09    0.45 E-2   0.04 E-2               2049.  4140400200247 
                                                                  4140400200248 
1010.35          0.14    0.30 E-2   0.03 E-2               2034.  4140400200249 
                                                                  4140400200250 
1018.9           0.2     0.17 E-2   0.02 E-2               2215.  4140400200251 
              1.                                                  4140400200252 
1021.9           0.2     0.132E-2   0.19 E-2                      4140400200253 
                                                                  4140400200254 
1024.93          0.10    0.35 E-2   0.03 E-2               2049.  4140400200255 
              1.                                                  4140400200256 
1028.31          0.09    0.38 E-2   0.03 E-2               2215.  4140400200257 
                                                                  4140400200258 
1034.67          0.08    0.45 E-2   0.04 E-2               2222.  4140400200259 
              1.                                                  4140400200260 
1046.07          0.06    0.62 E-2   0.05 E-2                      4140400200261 
                                                                  4140400200262 
1050.7           0.2     0.129E-2   0.019E-2                      4140400200263 
                                                                  4140400200264 
1052.9           0.2     0.22 E-2   0.02 E-2               2095.  4140400200265 
              1.                                                  4140400200266 
1060.64          0.09    0.30 E-2   0.03 E-2               2326.  4140400200267 
                                                                  4140400200268 
1062.31          0.09    0.29 E-2   0.03 E-2               2249.  4140400200269 
              1.                                                  4140400200270 
1072.08          0.16    0.23 E-2   0.02 E-2                      4140400200271 
                                                                  4140400200272 
1077.32          0.11    0.41 E-2   0.04 E-2                      4140400200273 
                                                                  4140400200274 
1080.86          0.09    0.38 E-2   0.03 E-2                      4140400200275 
                                                                  4140400200276 
1090.75          0.14    0.19 E-2   0.02 E-2                      4140400200277 
                                                                  4140400200278 
1094.17          0.04    0.75 E-2   0.06 E-2                      4140400200279 
                                                                  4140400200280 
1097.03          0.02    5.6  E-2   0.4  E-2               1359.  4140400200281 
                                                                  4140400200282 
1100.74          0.12    0.22 E-2   0.02 E-2               1640.  4140400200283 
                                                                  4140400200284 
1107.63          0.02   10.6  E-2   0.8  E-2               1187.  4140400200285 
                                                                  4140400200286 
1116.47          0.02    4.7  E-2   0.3  E-2               1196.  4140400200287 
                                                                  4140400200288 
1119.20          0.02    9.4  E-2   0.7  E-2               1381.  4140400200289 
                                                                  4140400200290 
1126.06          0.15    0.171E-2   0.019E-2                      4140400200291 
                                                                  4140400200292 
1128.91          0.12    0.20 E-2   0.02 E-2               1667.  4140400200293 
              1.                                                  4140400200294 
1130.59          0.14    0.162E-2   0.018E-2                      4140400200295 
                                                                  4140400200296 
1141.45          0.02    3.6  E-2   0.3  E-2               1403.  4140400200297 
                                                                  4140400200298 
1145.35          0.05    0.75 E-2   0.06 E-2               1407.  4140400200299 
                                                                  4140400200300 
1153.7           0.3     0.058E-2   0.013E-2                      4140400200301 
                                                                  4140400200302 
1157.4           0.3     0.063E-2   0.014E-2                      4140400200303 
                                                                  4140400200304 
1159.8           0.2     0.089E-2   0.015E-2                      4140400200305 
                                                                  4140400200306 
1166.81          0.12    0.22 E-2   0.02 E-2                      4140400200307 
                                                                  4140400200308 
1173.26          0.11    0.113E-2   0.016E-2                      4140400200309 
                                                                  4140400200310 
1180.38          0.04    1.99 E-2   0.14 E-2               1260.  4140400200311 
                                                                  4140400200312 
1184.05          0.04    7.6  E-2   0.5  E-2               1264.  4140400200313 
                                                                  4140400200314 
1185.87          0.04   12.1  E-2   0.9  E-2               1265.  4140400200315 
                                                                  4140400200316 
1187.13          0.03    5.8  E-2   0.4  E-2               1187.  4140400200317 
                                                                  4140400200318 
1196.4           0.2     0.140E-2   0.015E-2                      4140400200319 
                                                                  4140400200320 
1204.68          0.11    0.30 E-2   0.03 E-2                      4140400200321 
                                                                  4140400200322 
1208.5           0.3     0.106E-2   0.015E-2                      4140400200323 
                                                                  4140400200324 
1215.55          0.11    0.18 E-2   0.02 E-2                      4140400200325 
                                                                  4140400200326 
1218.77          0.03    0.47 E-2   0.04 E-2               2260.  4140400200327 
                                                                  4140400200328 
1220.15          0.02    2.6  E-2   0.2  E-2               1482.  4140400200329 
                                                                  4140400200330 
1221.41          0.03    0.55 E-2   0.04 E-2                      4140400200331 
                                                                  4140400200332 
1234.8           0.2     0.149E-2   0.018E-2                      4140400200333 
                                                                  4140400200334 
1237.60          0.02    2.8  E-2   0.2  E-2               1499.  4140400200335 
                                                                  4140400200336 
1244.3           0.3     0.191E-2   0.017E-2                      4140400200337 
                                                                  4140400200338 
1250.21          0.18    0.20 E-2   0.02 E-2                      4140400200339 
                                                                  4140400200340 
1256.00          0.04    0.89 E-2   0.07 E-2               1517.  4140400200341 
                                                                  4140400200342 
1259.90          0.04    3.6  E-2   0.3  E-2               1260.  4140400200343 
                                                                  4140400200344 
1263.58          0.04    4.6  E-2   0.3  E-2               1264.  4140400200345 
                                                                  4140400200346 
1271.85          0.08    0.27 E-2   0.02 E-2                      4140400200347 
                                                                  4140400200348 
1275.84          0.16    0.159E-2   0.018E-2                      4140400200349 
                                                                  4140400200350 
1279.01          0.03    1.77 E-2   0.13 E-2               1359.  4140400200351 
                                                                  4140400200352 
1284.6           0.2     0.122E-2   0.013E-2                      4140400200353 
                                                                  4140400200354 
1301.20          0.03    2.12 E-2   0.17 E-2               1381.  4140400200355 
                                                                  4140400200356 
1312.23          0.14    0.173E-2   0.017E-2                      4140400200357 
                                                                  4140400200358 
1314.81          0.16    0.110E-2   0.015E-2                      4140400200359 
                                                                  4140400200360 
1323.44          0.02    4.1  E-2   0.3  E-2               1403.  4140400200361 
                                                                  4140400200362 
1327.26          0.03    2.5  E-2   0.2  E-2               1407.  4140400200363 
                                                                  4140400200364 
1347.98          0.06    0.45 E-2   0.04 E-2               2325.  4140400200365 
                                                                  4140400200366 
1353.97          0.05    0.76 E-2   0.06 E-2                      4140400200367 
                                                                  4140400200368 
1360.67          0.15    0.26 E-2   0.03 E-2                      4140400200369 
                                                                  4140400200370 
1371.38          0.03    1.09 E-2   0.09 E-2                      4140400200371 
                                                                  4140400200372 
1372.98          0.03    2.29 E-2   0.16 E-2               1452.  4140400200373 
                                                                  4140400200374 
1378.19          0.11    0.36 E-2   0.03 E-2               1640.  4140400200375 
                                                                  4140400200376 
1386.3           0.3     0.068E-2   0.014E-2                      4140400200377 
                                                                  4140400200378 
1389.39          0.09    0.30 E-2   0.03 E-2                      4140400200379 
                                                                  4140400200380 
1392.62          0.08    0.48 E-2   0.04 E-2                      4140400200381 
                                                                  4140400200382 
1401.8           0.2     0.119E-2   0.016E-2                      4140400200383 
                                                                  4140400200384 
1405.84          0.04    0.87 E-2   0.07 E-2               1667.  4140400200385 
                                                                  4140400200386 
1419.6           0.2     0.117E-2   0.014E-2                      4140400200387 
                                                                  4140400200388 
1428.48          0.14    0.155E-2   0.016E-2                      4140400200389 
                                                                  4140400200390 
1437.89          0.03    2.6  E-2   0.2  E-2               1517.  4140400200391 
                                                                  4140400200392 
1455.10          0.17    0.25 E-2   0.03 E-2                      4140400200393 
                                                                  4140400200394 
1460.0           0.4     0.126E-2   0.019E-2                      4140400200395 
                                                                  4140400200396 
1483.2           0.4     0.045E-2   0.011E-2                      4140400200397 
                                                                  4140400200398 
1499.5           0.4     0.055E-2   0.012E-2                      4140400200399 
                                                                  4140400200400 
1504.7           0.3     0.036E-2   0.009E-2                      4140400200401 
                                                                  4140400200402 
1509.04          0.19    0.150E-2   0.016E-2                      4140400200403 
                                                                  4140400200404 
1517.36          0.03    1.85 E-2   0.15 E-2               1517.  4140400200405 
                                                                  4140400200406 
1522.3           0.4     0.122E-2   0.013E-2                      4140400200407 
              6.                                                  4140400200408 
1530.09          0.06    0.55 E-2   0.05 E-2               1792.  4140400200409 
                                                                  4140400200410 
1540.3           0.3     0.104E-2   0.012E-2                      4140400200411 
                                                                  4140400200412 
1564.05          0.17    0.125E-2   0.014E-2                      4140400200413 
                                                                  4140400200414 
1570.7           0.7     0.058E-2   0.011E-2                      4140400200415 
                                                                  4140400200416 
1577.2           0.7     0.073E-2   0.012E-2                      4140400200417 
                                                                  4140400200418 
1587.71          0.05    0.97 E-2   0.07 E-2               1667.  4140400200419 
                                                                  4140400200420 
1617.6           0.6     0.043E-2   0.014E-2               2805.  4140400200421 
                                                                  4140400200422 
1622.2           0.3     0.098E-2   0.017E-2                      4140400200423 
                                                                  4140400200424 
1625.8           0.3     0.110E-2   0.016E-2                      4140400200425 
                                                                  4140400200426 
1632.8           0.7     0.048E-2   0.011E-2               1894.  4140400200427 
                                                                  4140400200428 
1637.5           0.2     0.172E-2   0.019E-2                      4140400200429 
                                                                  4140400200430 
1640.4           0.3     0.113E-2   0.017E-2               1901.  4140400200431 
                                                                  4140400200432 
1644.2           0.2     0.163E-2   0.018E-2                      4140400200433 
                                                                  4140400200434 
1650.8           0.2     0.149E-2   0.017E-2               2675.  4140400200435 
                                                                  4140400200436 
1657.5           0.3     0.040E-2   0.009E-2                      4140400200437 
                                                                  4140400200438 
1663.54          0.05    0.69 E-2   0.06 E-2               1743.  4140400200439 
                                                                  4140400200440 
1674.0           0.2     0.138E-2   0.015E-2                      4140400200441 
                                                                  4140400200442 
1682.39          0.18    0.156E-2   0.016E-2                      4140400200443 
                                                                  4140400200444 
1692.46          0.18    0.260E-2   0.020E-2               1954.  4140400200445 
                                                                  4140400200446 
1697.30          0.60    0.030E-2   0.009E-2               2675.  4140400200447 
                                                                  4140400200448 
1703.00          0.30    0.100E-2   0.017E-2               1964.  4140400200449 
                                                                  4140400200450 
1707.40          0.30    0.138E-2   0.019E-2                      4140400200451 
                                                                  4140400200452 
1721.70          0.30    0.119E-2   0.018E-2                      4140400200453 
                                                                  4140400200454 
1725.90          0.50    0.135E-2   0.018E-2                      4140400200455 
                                                                  4140400200456 
1735.50          0.50    0.060E-2   0.015E-2                      4140400200457 
                                                                  4140400200458 
1739.10          0.40    0.087E-2   0.016E-2                      4140400200459 
                                                                  4140400200460 
1749.90          0.20    0.200E-2   0.020E-2                      4140400200461 
                                                                  4140400200462 
1756.50          0.40    0.150E-2   0.020E-2                      4140400200463 
                                                                  4140400200464 
1774.44          0.17    0.490E-2   0.040E-2               2035.  4140400200465 
              1.                                                  4140400200466 
1782.03          0.12    0.300E-2   0.030E-2               1862.  4140400200467 
                                                                  4140400200468 
1786.20          0.20    0.170E-2   0.020E-2                      4140400200469 
                                                                  4140400200470 
1799.20          0.50    0.096E-2   0.013E-2                      4140400200471 
                                                                  4140400200472 
1815.30          0.18    0.320E-2   0.030E-2               1895.  4140400200473 
                                                                  4140400200474 
1833.73          0.16    0.300E-2   0.020E-2               2095.  4140400200475 
                                                                  4140400200476 
1838.90          0.30    0.073E-2   0.011E-2                      4140400200477 
                                                                  4140400200478 
1856.38          0.06    0.490E-2   0.040E-2               1856.  4140400200479 
                                                                  4140400200480 
1858.83          0.08    0.310E-2   0.030E-2                      4140400200481 
                                                                  4140400200482 
1864.81          0.07    0.350E-2   0.030E-2                      4140400200483 
                                                                  4140400200484 
1877.76          0.09    0.400E-2   0.030E-2               1957.  4140400200485 
                                                                  4140400200486 
1884.64          0.14    0.310E-2   0.030E-2               1964.  4140400200487 
                                                                  4140400200488 
1891.40          0.30    0.076E-2   0.017E-2                      4140400200489 
                                                                  4140400200490 
1930.90          0.30    0.137E-2   0.015E-2               1930.  4140400200491 
              1.                                                  4140400200492 
1940.78          0.10    0.520E-2   0.040E-2                      4140400200493 
                                                                  4140400200494 
1944.35          0.09    0.450E-2   0.040E-2               2024.  4140400200495 
                                                                  4140400200496 
1955.76          0.06    0.840E-2   0.070E-2               2035.  4140400200497 
                                                                  4140400200498 
1971.00          0.20    0.230E-2   0.020E-2                      4140400200499 
                                                                  4140400200500 
1977.80          0.30    0.250E-2   0.020E-2                      4140400200501 
                                                                  4140400200502 
1988.60          0.60    0.071E-2   0.017E-2                      4140400200503 
                                                                  4140400200504 
1998.50          0.30    0.074E-2   0.013E-2                      4140400200505 
                                                                  4140400200506 
2009.90          0.30    0.240E-2   0.020E-2               2090.  4140400200507 
              1.                                                  4140400200508 
2014.80          0.30    0.200E-2   0.020E-2               2095.  4140400200509 
              1.                                                  4140400200510 
2023.77          0.12    0.330E-2   0.030E-2               2024.  4140400200511 
                                                                  4140400200512 
2028.00          0.40    0.089E-2   0.016E-2                      4140400200513 
                                                                  4140400200514 
2035.60          0.60    0.076E-2   0.015E-2               2035.  4140400200515 
                                                                  4140400200516 
2040.63          0.08    0.340E-2   0.030E-2                      4140400200517 
                                                                  4140400200518 
2060.40          0.14    0.210E-2   0.020E-2                      4140400200519 
                                                                  4140400200520 
2068.30          0.20    0.210E-2   0.020E-2                      4140400200521 
                                                                  4140400200522 
2071.51          0.14    0.300E-2   0.030E-2                      4140400200523 
                                                                  4140400200524 
2073.88          0.16    0.151E-2   0.018E-2                      4140400200525 
                                                                  4140400200526 
2102.30          0.50    0.056E-2   0.016E-2                      4140400200527 
                                                                  4140400200528 
2107.30          0.20    0.190E-2   0.020E-2                      4140400200529 
                                                                  4140400200530 
2122.48          0.15    0.290E-2   0.020E-2                      4140400200531 
                                                                  4140400200532 
2135.26          0.13    0.310E-2   0.030E-2               2215.  4140400200533 
                                                                  4140400200534 
2138.51          0.08    0.630E-2   0.050E-2                      4140400200535 
                                                                  4140400200536 
2148.80          0.13    0.270E-2   0.020E-2                      4140400200537 
                                                                  4140400200538 
2154.48          0.14    0.220E-2   0.020E-2                      4140400200539 
                                                                  4140400200540 
2163.07          0.13    0.240E-2   0.020E-2                      4140400200541 
                                                                  4140400200542 
2170.90          0.19    0.126E-2   0.016E-2                      4140400200543 
                                                                  4140400200544 
2180.52          0.14    0.450E-2   0.040E-2               2260.  4140400200545 
                                                                  4140400200546 
2187.90          0.20    0.200E-2   0.020E-2               2267.  4140400200547 
                                                                  4140400200548 
2196.26          0.17    0.290E-2   0.030E-2                      4140400200549 
                                                                  4140400200550 
2202.83          0.10    0.590E-2   0.040E-2                      4140400200551 
                                                                  4140400200552 
2210.20          0.30    0.161E-2   0.015E-2               2289.  4140400200553 
              1.                                                  4140400200554 
2215.18          0.17    0.330E-2   0.030E-2               2215.  4140400200555 
                                                                  4140400200556 
2233.30          0.20    0.153E-2   0.016E-2                      4140400200557 
                                                                  4140400200558 
2242.20          0.17    0.230E-2   0.020E-2                      4140400200559 
                                                                  4140400200560 
2246.48          0.12    0.330E-2   0.030E-2               2326.  4140400200561 
                                                                  4140400200562 
2250.50          0.40    0.121E-2   0.016E-2                      4140400200563 
                                                                  4140400200564 
2260.16          0.16    0.310E-2   0.030E-2               2260.  4140400200565 
                                                                  4140400200566 
2267.04          0.12    0.370E-2   0.030E-2               2267.  4140400200567 
                                                                  4140400200568 
2273.29          0.17    0.250E-2   0.020E-2                      4140400200569 
                                                                  4140400200570 
2276.30          0.20    0.155E-2   0.018E-2                      4140400200571 
                                                                  4140400200572 
2289.44          0.12    0.330E-2   0.030E-2               2289.  4140400200573 
              3.          1.                                      4140400200574 
2304.42          0.13    0.300E-2   0.030E-2                      4140400200575 
                                                                  4140400200576 
2314.01          0.09    0.270E-2   0.020E-2                      4140400200577 
                                                                  4140400200578 
2327.40          0.20    0.190E-2   0.020E-2                      4140400200579 
                                                                  4140400200580 
2337.40          0.20    0.117E-2   0.013E-2                      4140400200581 
                                                                  4140400200582 
2344.60          0.50    0.058E-2   0.010E-2                      4140400200583 
                                                                  4140400200584 
2366.80          0.20    0.200E-2   0.020E-2               2446.  4140400200585 
                                                                  4140400200586 
2369.70          0.20    0.190E-2   0.020E-2                      4140400200587 
                                                                  4140400200588 
2389.60          0.50    0.170E-2   0.020E-2                      4140400200589 
                                                                  4140400200590 
2395.20          0.30    0.134E-2   0.019E-2                      4140400200591 
                                                                  4140400200592 
2401.30          0.30    0.171E-2   0.019E-2                      4140400200593 
                                                                  4140400200594 
2412.30          0.20    0.145E-2   0.018E-2                      4140400200595 
                                                                  4140400200596 
2418.30          0.17    0.270E-2   0.030E-2                      4140400200597 
                                                                  4140400200598 
2434.80          0.30    0.119E-2   0.016E-2                      4140400200599 
                                                                  4140400200600 
2437.80          0.30    0.100E-2   0.016E-2                      4140400200601 
                                                                  4140400200602 
2446.26          0.16    0.260E-2   0.020E-2               2446.  4140400200603 
                                                                  4140400200604 
2450.70          0.12    0.370E-2   0.030E-2               2451.  4140400200605 
                                                                  4140400200606 
2458.51          0.12    0.200E-2   0.020E-2                      4140400200607 
                                                                  4140400200608 
2474.40          0.50    0.064E-2   0.011E-2                      4140400200609 
                                                                  4140400200610 
2485.70          0.40    0.057E-2   0.011E-2               2565.  4140400200611 
                                                                  4140400200612 
2498.80          0.20    0.125E-2   0.014E-2                      4140400200613 
                                                                  4140400200614 
2505.50          0.30    0.048E-2   0.011E-2                      4140400200615 
                                                                  4140400200616 
2515.20          0.20    0.290E-2   0.030E-2               2595.  4140400200617 
                                                                  4140400200618 
2520.80          0.30    0.180E-2   0.020E-2               2600.  4140400200619 
                                                                  4140400200620 
2550.80          0.40    0.071E-2   0.011E-2                      4140400200621 
                                                                  4140400200622 
2564.82          0.18    0.240E-2   0.020E-2               2565.  4140400200623 
                                                                  4140400200624 
2577.04          0.16    0.210E-2   0.020E-2                      4140400200625 
                                                                  4140400200626 
2600.10          0.30    0.250E-2   0.020E-2               2600.  4140400200627 
                                                                  4140400200628 
2607.50          0.40    0.103E-2   0.013E-2               2687.  4140400200629 
                                                                  4140400200630 
2626.50          0.60    0.113E-2   0.014E-2                      4140400200631 
                                                                  4140400200632 
2641.50          0.50    0.094E-2   0.017E-2                      4140400200633 
                                                                  4140400200634 
2646.80          0.50    0.140E-2   0.020E-2                      4140400200635 
                                                                  4140400200636 
2654.00          0.40    0.119E-2   0.017E-2                      4140400200637 
                                                                  4140400200638 
2663.70          0.50    0.117E-2   0.016E-2                      4140400200639 
                                                                  4140400200640 
2670.20          0.60    0.122E-2   0.017E-2               2750.  4140400200641 
                                                                  4140400200642 
2674.80          0.40    0.170E-2   0.020E-2               2675.  4140400200643 
                                                                  4140400200644 
2678.20          0.60    0.096E-2   0.016E-2                      4140400200645 
                                                                  4140400200646 
2686.30          0.80    0.160E-2   0.020E-2               2687.  4140400200647 
                                                                  4140400200648 
2702.00          0.30    0.310E-2   0.030E-2               2702.  4140400200649 
                                                                  4140400200650 
2720.40          0.70    0.071E-2   0.016E-2                      4140400200651 
                                                                  4140400200652 
2727.80          0.50    0.120E-2   0.018E-2                      4140400200653 
                                                                  4140400200654 
2742.00          0.80    0.147E-2   0.017E-2               2822.  4140400200655 
                                                                  4140400200656 
2750.40          0.20    0.141E-2   0.017E-2               2750.  4140400200657 
                                                                  4140400200658 
2767.10          0.70    0.068E-2   0.014E-2                      4140400200659 
                                                                  4140400200660 
2775.40          0.50    0.095E-2   0.016E-2               2855.  4140400200661 
                                                                  4140400200662 
2783.10          0.60    0.085E-2   0.016E-2                      4140400200663 
                                                                  4140400200664 
2791.20          0.70    0.051E-2   0.010E-2                      4140400200665 
                                                                  4140400200666 
2798.90          0.60    0.093E-2   0.016E-2                      4140400200667 
                                                                  4140400200668 
2805.10          0.30    0.140E-2   0.020E-2               2805.  4140400200669 
                                                                  4140400200670 
2816.40          0.60    0.118E-2   0.016E-2                      4140400200671 
                                                                  4140400200672 
2822.80          0.70    0.063E-2   0.016E-2               2822.  4140400200673 
                                                                  4140400200674 
2832.00          0.30    0.210E-2   0.020E-2               2832.  4140400200675 
                                                                  4140400200676 
2839.40          0.60    0.095E-2   0.017E-2                      4140400200677 
                                                                  4140400200678 
2850.00          1.00    0.059E-2   0.014E-2                      4140400200679 
                                                                  4140400200680 
2854.60          0.50    0.125E-2   0.016E-2               2855.  4140400200681 
                                                                  4140400200682 
2869.00          1.10    0.056E-2   0.016E-2                      4140400200683 
                                                                  4140400200684 
2879.60          0.70    0.082E-2   0.016E-2                      4140400200685 
                                                                  4140400200686 
2885.10          1.00    0.077E-2   0.016E-2               2964.  4140400200687 
                                                                  4140400200688 
2895.90          0.70    0.062E-2   0.015E-2                      4140400200689 
                                                                  4140400200690 
2904.70          0.60    0.090E-2   0.015E-2                      4140400200691 
                                                                  4140400200692 
2916.10          0.70    0.062E-2   0.013E-2                      4140400200693 
                                                                  4140400200694 
2920.60          0.60    0.061E-2   0.014E-2                      4140400200695 
                                                                  4140400200696 
2932.50          0.50    0.119E-2   0.016E-2                      4140400200697 
                                                                  4140400200698 
2946.60          1.20    0.041E-2   0.015E-2                      4140400200699 
                                                                  4140400200700 
2952.20          1.10    0.039E-2   0.014E-2                      4140400200701 
                                                                  4140400200702 
2964.20          0.50    0.137E-2   0.015E-2               2964.  4140400200703 
                                                                  4140400200704 
2980.40          0.60    0.077E-2   0.016E-2               3060.  4140400200705 
                                                                  4140400200706 
2986.00          0.70    0.074E-2   0.015E-2               3065.  4140400200707 
                                                                  4140400200708 
3006.40          0.50    0.101E-2   0.016E-2                      4140400200709 
                                                                  4140400200710 
3026.90          0.40    0.078E-2   0.012E-2                      4140400200711 
                                                                  4140400200712 
3038.10          0.40    0.109E-2   0.013E-2               3038.  4140400200713 
                                                                  4140400200714 
3059.80          0.90    0.053E-2   0.012E-2               3060.  4140400200715 
                                                                  4140400200716 
3064.70          0.50    0.093E-2   0.014E-2               3065.  4140400200717 
                                                                  4140400200718 
3083.20          0.40    0.072E-2   0.013E-2                      4140400200719 
                                                                  4140400200720 
3097.90          0.80    0.027E-2   0.011E-2                      4140400200721 
                                                                  4140400200722 
3109.90          1.40    0.022E-2   0.012E-2                      4140400200723 
                                                                  4140400200724 
3119.30          0.80    0.064E-2   0.014E-2                      4140400200725 
                                                                  4140400200726 
3135.20          0.60    0.035E-2   0.008E-2                      4140400200727 
                                                                  4140400200728 
3175.50          0.80    0.077E-2   0.011E-2                      4140400200729 
                                                                  4140400200730 
3188.10          0.90    0.048E-2   0.009E-2                      4140400200731 
                                                                  4140400200732 
3227.60          1.10    0.047E-2   0.010E-2                      4140400200733 
                                                                  4140400200734 
3237.10          0.50    0.072E-2   0.011E-2                      4140400200735 
                                                                  4140400200736 
3299.20          0.60    0.050E-2   0.009E-2                      4140400200737 
                                                                  4140400200738 
3318.10          0.60    0.053E-2   0.011E-2                      4140400200739 
                                                                  4140400200740 
3341.80          0.80    0.056E-2   0.011E-2                      4140400200741 
                                                                  4140400200742 
ENDDATA            716          0                                 4140400200743 
ENDSUBENT          742          0                                 4140400299999 
SUBENT        41404003   20131226                             41624140400300001 
BIB                  4          5                                 4140400300002 
REACTION   (64-GD-158(N,INL)64-GD-158,PAR,DA,G,LEG/RS/FIS)        4140400300003 
EN-SEC      LVL-INI - initial level of 64-GD-158                  4140400300004 
            LVL-FIN,64-GD-158                                     4140400300005 
ERR-ANALYS    LVL-INI-ER   Error in initial level energy          4140400300006 
STATUS     (TABLE) Table 2 of J,YF,64,(7),1329,2001               4140400300007 
ENDBIB               5          0                                 4140400300008 
NOCOMMON             0          0                                 4140400300009 
DATA                 7        100                                 4140400300010 
E          NUMBER     DATA       DATA-ERR   LVL-INI    LVL-INI-ER 4140400300011 
LVL-FIN                                                           4140400300012 
KEV        NO-DIM     NO-DIM     NO-DIM     KEV        KEV        4140400300013 
KEV                                                               4140400300014 
   181.94    2.         0.237      0.018    261.45        0.03    4140400300015 
    80.                                                           4140400300016 
   181.94    4.        -0.070      0.020    261.45        0.03    4140400300017 
    80.                                                           4140400300018 
   539.58    2.         0.35       0.04     1920.26       0.06    4140400300019 
  1381.                                                           4140400300020 
   539.58    4.         0.02       0.06     1920.26       0.06    4140400300021 
  1381.                                                           4140400300022 
   743.05    2.        -0.05       0.03     1930.21       0.06    4140400300023 
  1187.                                                           4140400300024 
   743.05    4.         0.         0.05     1930.21       0.06    4140400300025 
  1187.                                                           4140400300026 
   902.38    2.         0.49       0.04     2089.51       0.05    4140400300027 
  1187.                                                           4140400300028 
   902.38    4.         0.09       0.05     2089.51       0.05    4140400300029 
  1187.                                                           4140400300030 
   962.08    2.        -0.166      0.016    1041.60       0.03    4140400300031 
    80.                                                           4140400300032 
   962.08    4.         0.001      0.022    1041.60       0.03    4140400300033 
    80.                                                           4140400300034 
   977.13    2.        -0.108      0.015    977.13        0.02    4140400300035 
     0.                                                           4140400300036 
   977.13    4.         0.                  977.13        0.02    4140400300037 
     0.                                                           4140400300038 
   998.47    2.         0.081      0.019    1259.90       0.07    4140400300039 
   261.                                                           4140400300040 
   998.47    4.         0.002      0.021    1259.90       0.07    4140400300041 
   261.                                                           4140400300042 
  1003.95    2.        -0.132      0.014    1265.40       0.04    4140400300043 
   261.                                                           4140400300044 
  1003.95    4.         0.075      0.021    1265.40       0.04    4140400300045 
   261.                                                           4140400300046 
  1097.03    2.        -0.078      0.015    1358.50       0.04    4140400300047 
   261.                                                           4140400300048 
  1097.03    4.        -0.024      0.023    1358.50       0.04    4140400300049 
   261.                                                           4140400300050 
  1107.63    2.         0.066      0.015    1187.13       0.03    4140400300051 
    80.                                                           4140400300052 
  1107.63    4.        -0.029      0.022    1187.13       0.03    4140400300053 
    80.                                                           4140400300054 
  1116.47    2.         0.028      0.022    1195.98       0.02    4140400300055 
    80.                                                           4140400300056 
  1116.47    4.         0.035      0.032    1195.98       0.02    4140400300057 
    80.                                                           4140400300058 
  1119.2     2.        -0.219      0.014    1380.64       0.04    4140400300059 
   261.                                                           4140400300060 
  1119.2     4.        -0.066      0.022    1380.64       0.04    4140400300061 
   261.                                                           4140400300062 
  1141.45    2.        -0.03       0.02     1402.93       0.03    4140400300063 
   261.                                                           4140400300064 
  1141.45    4.         0.02       0.04     1402.93       0.03    4140400300065 
   261.                                                           4140400300066 
  1145.35    2.         0.30       0.05     1406.78       0.04    4140400300067 
   261.                                                           4140400300068 
  1145.35    4.        -0.06       0.07     1406.78       0.04    4140400300069 
   261.                                                           4140400300070 
  1180.38    2.        -0.144      0.015    1259.90       0.07    4140400300071 
    80.                                                           4140400300072 
  1180.38    4.        -0.008      0.025    1259.90       0.07    4140400300073 
    80.                                                           4140400300074 
  1184.05    2.        -0.037      0.015    1263.57       0.04    4140400300075 
    80.                                                           4140400300076 
  1184.05    4.         0.                  1263.57       0.04    4140400300077 
    80.                                                           4140400300078 
  1185.87    2.         0.105      0.025    1265.40       0.04    4140400300079 
    80.                                                           4140400300080 
  1185.87    4.         0.091      0.035    1265.40       0.04    4140400300081 
    80.                                                           4140400300082 
  1187.13    2.         0.284      0.026    1187.13       0.03    4140400300083 
     0.                                                           4140400300084 
  1187.13    4.        -0.1        0.035    1187.13       0.03    4140400300085 
     0.                                                           4140400300086 
  1256.      2.         0.082      0.02     1517.39       0.03    4140400300087 
   261.                                                           4140400300088 
  1256.      4.         0.002      0.024    1517.39       0.03    4140400300089 
   261.                                                           4140400300090 
  1259.9     2.         0.247      0.015    1259.90       0.07    4140400300091 
     0.                                                           4140400300092 
  1259.9     4.        -0.083      0.020    1259.90       0.07    4140400300093 
     0.                                                           4140400300094 
  1263.58    2.        -0.150      0.015    1263.57       0.04    4140400300095 
     0.                                                           4140400300096 
  1263.58    4.         0.003      0.022    1263.57       0.04    4140400300097 
     0.                                                           4140400300098 
  1279.01    2.         0.271      0.016    1358.50       0.04    4140400300099 
    80.                                                           4140400300100 
  1279.01    4.        -0.072      0.022    1358.50       0.04    4140400300101 
    80.                                                           4140400300102 
  1301.20    2.         0.276      0.021    1380.64       0.04    4140400300103 
    80.                                                           4140400300104 
  1301.20    4.        -0.071      0.027    1380.64       0.04    4140400300105 
    80.                                                           4140400300106 
  1323.44    2.        -0.182      0.015    1402.93       0.03    4140400300107 
    80.                                                           4140400300108 
  1323.44    4.         0.029      0.023    1402.93       0.03    4140400300109 
    80.                                                           4140400300110 
  1327.26    2.         0.33       0.02     1406.78       0.04    4140400300111 
    80.                                                           4140400300112 
  1327.26    4.        -0.03       0.03     1406.78       0.04    4140400300113 
    80.                                                           4140400300114 
  1405.84    2.        -0.09       0.04     1667.26       0.05    4140400300115 
   261.                                                           4140400300116 
  1405.84    4.        -0.02       0.05     1667.26       0.05    4140400300117 
   261.                                                           4140400300118 
  1437.89    2.        -0.227      0.017    1517.39       0.03    4140400300119 
    80.                                                           4140400300120 
  1437.89    4.        -0.021      0.024    1517.39       0.03    4140400300121 
    80.                                                           4140400300122 
  1517.36    2.         0.254      0.016    1517.39       0.03    4140400300123 
     0.                                                           4140400300124 
  1517.36    4.        -0.107      0.021    1517.39       0.03    4140400300125 
     0.                                                           4140400300126 
  1530.09    2.         0.09       0.03     1791.60       0.05    4140400300127 
   261.                                                           4140400300128 
  1530.09    4.         0.                  1791.60       0.05    4140400300129 
   261.                                                           4140400300130 
  1587.71    2.         0.28       0.03     1667.26       0.05    4140400300131 
    80.                                                           4140400300132 
  1587.71    4.        -0.01       0.04     1667.26       0.05    4140400300133 
    80.                                                           4140400300134 
  1833.73    2.         0.19       0.09     2094.8        0.2     4140400300135 
   261.                                                           4140400300136 
  1833.73    4.        -0.02       0.13     2094.8        0.2     4140400300137 
   261.                                                           4140400300138 
  1877.76    2.        -0.03       0.06     1957.28       0.09    4140400300139 
    80.                                                           4140400300140 
  1877.76    4.         0.         0.1      1957.28       0.09    4140400300141 
    80.                                                           4140400300142 
  1884.64    2.         0.21       0.09     1964.24       0.08    4140400300143 
    80.                                                           4140400300144 
  1884.64    4.        -0.01       0.15     1964.24       0.08    4140400300145 
    80.                                                           4140400300146 
  1955.86    2.         0.3        0.03     2035.28       0.06    4140400300147 
    80.                                                           4140400300148 
  1955.86    4.         0.03       0.05     2035.28       0.06    4140400300149 
    80.                                                           4140400300150 
  2009.9     2.         0.26       0.15     2089.51       0.05    4140400300151 
    80.                                                           4140400300152 
  2009.9     4.        -0.05       0.2      2089.51       0.05    4140400300153 
    80.                                                           4140400300154 
  2014.8     2.         0.35       0.17     2094.8        0.2     4140400300155 
    80.                                                           4140400300156 
  2014.8     4.        -0.09       0.23     2094.8        0.2     4140400300157 
    80.                                                           4140400300158 
  2023.77    2.         -0.08      0.07     2023.83       0.09    4140400300159 
     0.                                                           4140400300160 
  2023.77    4.        -0.02       0.12     2023.83       0.09    4140400300161 
     0.                                                           4140400300162 
  2040.63    2.        -0.22       0.08     2120.22       0.08    4140400300163 
    80.                                                           4140400300164 
  2040.63    4.        -0.08       0.12     2120.22       0.08    4140400300165 
    80.                                                           4140400300166 
  2215.18    2.        -0.07       0.1      2214.93       0.13    4140400300167 
     0.                                                           4140400300168 
  2215.18    4.         0.                  2214.93       0.13    4140400300169 
     0.                                                           4140400300170 
  2260.16    2.         0.35       0.11     2260.11       0.14    4140400300171 
     0.                                                           4140400300172 
  2260.16    4.        -0.04       0.15     2260.11       0.14    4140400300173 
     0.                                                           4140400300174 
  2267.04    2.         0.09       0.09     2267.15       0.12    4140400300175 
     0.                                                           4140400300176 
  2267.04    4.         0.01       0.12     2267.15       0.12    4140400300177 
     0.                                                           4140400300178 
  2450.70    2.         0.13       0.07     2450.72       0.12    4140400300179 
     0.                                                           4140400300180 
  2450.70    4.        -0.02       0.13     2450.72       0.12    4140400300181 
     0.                                                           4140400300182 
  2564.84    2.        -0.09       0.08     2564.88       0.18    4140400300183 
     0.                                                           4140400300184 
  2564.84    4.         0.                  2564.88       0.18    4140400300185 
     0.                                                           4140400300186 
  2574.8     2.         0.1        0.15     2674.5        0.4     4140400300187 
     0.                                                           4140400300188 
  2574.8     4.        -0.1        0.25     2674.5        0.4     4140400300189 
     0.                                                           4140400300190 
  2600.1     2.        -0.04       0.08     2600.2        0.3     4140400300191 
     0.                                                           4140400300192 
  2600.1     4.         0.                  2600.2        0.3     4140400300193 
     0.                                                           4140400300194 
  2686.3     2.        -0.09       0.09     2686.9        0.4     4140400300195 
     0.                                                           4140400300196 
  2686.3     4.         0.         0.14     2686.9        0.4     4140400300197 
     0.                                                           4140400300198 
  2702.0     2.         0.10       0.07     2702.0        0.3     4140400300199 
     0.                                                           4140400300200 
  2702.0     4.        -0.01       0.1      2702.0        0.3     4140400300201 
     0.                                                           4140400300202 
  2750.4     2.        -0.05       0.2      2750.3        0.2     4140400300203 
     0.                                                           4140400300204 
  2750.4     4.         0.                  2750.3        0.2     4140400300205 
     0.                                                           4140400300206 
  2832.0     2.        -0.11       0.13     2832.0        0.3     4140400300207 
     0.                                                           4140400300208 
  2832.0     4.         0.                  2832.0        0.3     4140400300209 
     0.                                                           4140400300210 
  2964.2     2.         0.11       0.16     2964.2        0.5     4140400300211 
     0.                                                           4140400300212 
  2964.2     4.        -0.04       0.21     2964.2        0.5     4140400300213 
     0.                                                           4140400300214 
ENDDATA            204          0                                 4140400300215 
ENDSUBENT          214          0                                 4140400399999 
SUBENT        41404004   20131226                             41624140400400001 
BIB                  3          4                                 4140400400002 
REACTION   (64-GD-158(N,INL)64-GD-158,PAR,POL,G,FIS)              4140400400003 
ERR-ANALYS (+DATA-ERR)  Positive unsymmetrical error              4140400400004 
           (-DATA-ERR)  Negative unsymmetrical error              4140400400005 
STATUS     (TABLE) Table 3 of J,YF,64,(7),1329,2001               4140400400006 
ENDBIB               4          0                                 4140400400007 
NOCOMMON             0          0                                 4140400400008 
DATA                 5         18                                 4140400400009 
E          DATA       DATA-ERR   +DATA-ERR  -DATA-ERR             4140400400010 
KEV        NO-DIM     NO-DIM     NO-DIM     NO-DIM                4140400400011 
 780.16       1.2       0.2                                       4140400400012 
 944.13       0.56      0.1                                       4140400400013 
 962.08       1.8                  0.4         0.3                4140400400014 
 977.13       1.5       0.3                                       4140400400015 
 988.47       1.3       0.3                                       4140400400016 
1003.95       0.49      0.13                                      4140400400017 
1097.03       1.2                  0.3         0.2                4140400400018 
1107.63       0.88      0.16                                      4140400400019 
1116.47       0.94      0.2                                       4140400400020 
1119.20       0.47      0.1                                       4140400400021 
1180.38       1.7                  0.8         0.5                4140400400022 
1237.60       1.4                  0.4         0.3                4140400400023 
1259.90       1.9                  0.8         0.5                4140400400024 
1263.58       1.3       0.3                                       4140400400025 
1323.44       2.6                  1.3         0.6                4140400400026 
1405.84       0.7                  0.6         0.4                4140400400027 
1437.89       1.9                  0.9         0.5                4140400400028 
1517.36       2.0                  1.9         0.8                4140400400029 
ENDDATA             20          0                                 4140400400030 
ENDSUBENT           29          0                                 4140400499999 
ENDENTRY             4          0                                 4140499999999 
