ENTRY            41417   20131212                             41624141700000001 
SUBENT        41417001   20131212                             41624141700100001 
BIB                 13         32                                 4141700100002 
TITLE       Multipole mixtures gamma-transitions accompanying the 4141700100003 
           the (n,n'gamma) reaction on 162-Dy .                   4141700100004 
AUTHOR     (L.I.Govor,A.M.Demidov, V.A.Kurkin)                    4141700100005 
INSTITUTE  (4RUSKUR)                                              4141700100006 
REFERENCE  (J,YF,65,(5),819,2002)    Main reference, data given   4141700100007 
           (J,PAN,65,785,2002) Engl.translation of YF,65,(5),819  4141700100008 
REL-REF    (M,41234001,L.I.Govor+,J,YF,59,(10),1733,199610)       4141700100009 
            Exp. details                                          4141700100010 
           (M,,L.I.Govor+,J,PAN,59,1675,1996)                     4141700100011 
            Engl.translation of J,YF,59,(10),1733,1996            4141700100012 
           (M,,A.M.Demidov,B,DEMIDOV,,70,1986) Exp. details       4141700100013 
FACILITY   (REAC,4RUSKUR)  IR-8 Reactor of 4RUSKUR                4141700100014 
INC-SOURCE (REAC)                                                 4141700100015 
INC-SPECT   Fast neutron spectrum of the thermal reactor          4141700100016 
DETECTOR   (HPGE)   Germanium detectors, efficiency 10%,          4141700100017 
                    resolution 2.1 keV at E-gamma=1.3 MeV         4141700100018 
MONITOR    (66-DY-162(N,INL)66-DY-162,,SPC) At E-gamma=1195.109keV4141700100019 
COMMENT           Gamma energy was measured at the angle 90 deg   4141700100020 
                  relative to neutron beam, intensity was measured4141700100021 
                  at 125 deg.                                     4141700100022 
SAMPLE     .162-Dy2-O3 mass 10 gram, thickness 0.96 gram/cm2.     4141700100023 
            Dy-162 enrichment is 95.2 %                           4141700100024 
            Dy-161 abundance  is 0.95 %                           4141700100025 
            Dy-163            is 3.12 %                           4141700100026 
            Dy-164            is 0.73 %                           4141700100027 
HISTORY    (20030117C)  + + Compiled at the Centre - CJD + +      4141700100028 
           (20030117U) Last checking has been done.               4141700100029 
           (20131126A) M.M. Upper -> lower case correction.       4141700100030 
           Ref. J,YF,59,(10),1733,1996 was moved in REL-REF.      4141700100031 
           Ref. and REL-REF of Engl.translations were added.      4141700100032 
            STATUS was added in Subents 002-003.                  4141700100033 
            BIB information was updated.                          4141700100034 
ENDBIB              32          0                                 4141700100035 
COMMON               1          3                                 4141700100036 
EN-DUMMY                                                          4141700100037 
EV                                                                4141700100038 
     1.E+06                                                       4141700100039 
ENDCOMMON            3          0                                 4141700100040 
ENDSUBENT           39          0                                 4141700199999 
SUBENT        41417002   20131212                             41624141700200001 
BIB                  6         13                                 4141700200002 
REACTION   ((66-DY-162(N,INL)66-DY-162,,SPC,,FIS)//               4141700200003 
           (66-DY-162(N,INL)66-DY-162,,SPC,,FIS))  Relative to    4141700200004 
            185.001 keV gamma line taken for 100.                 4141700200005 
EN-SEC     (E-DN,G)                                               4141700200006 
           (E-NM,G)                                               4141700200007 
            LVL-INI - initial level of 66-DY-162                  4141700200008 
ANALYSIS    Energies were measured at 90 deg. angle,              4141700200009 
            relative intensities - at 125 deg.                    4141700200010 
ERR-ANALYS (DATA-ERR)  Error not specified                        4141700200011 
            E-DN-ERR - Error in denominator gamma-energy          4141700200012 
            E-NM-ERR - Error in nominator gamma-energy            4141700200013 
FLAG       (1.)   Initial level known indefinitely                4141700200014 
STATUS     (TABLE) Table 1 of J,YF,65,(5),819,2002                4141700200015 
ENDBIB              13          0                                 4141700200016 
COMMON               2          3                                 4141700200017 
E-DN       E-DN-ERR                                               4141700200018 
KEV        KEV                                                    4141700200019 
    185.001       0.04                                            4141700200020 
ENDCOMMON            3          0                                 4141700200021 
DATA                 8        271                                 4141700200022 
E-NM       E-NM-ERR   DATA       DATA-ERR   DATA-MAX   LVL-INI    4141700200023 
LVL-INI    FLAG                                                   4141700200024 
KEV        KEV        NO-DIM     NO-DIM     NO-DIM     KEV        4141700200025 
KEV        NO-DIM                                                 4141700200026 
  80.65         0.02      6.2 E-1    3.  E-2              80.6    4141700200027 
                                                                  4141700200028 
 114.0          0.4                             0.50E-2 1297.0    4141700200029 
                                                                  4141700200030 
 149.26         0.03                            0.90E-2           4141700200031 
                                                                  4141700200032 
 185.001        0.004     1.         5.  E-2             265.7    4141700200033 
                                                                  4141700200034 
 212.96         0.06      1.66E-2    0.10E-2            1570.8    4141700200035 
                                                                  4141700200036 
 220.08         0.24      0.26E-2    0.04E-2                      4141700200037 
                                                                  4141700200038 
 233.00         0.05      0.18E-2    0.06E-2            1530.0    4141700200039 
                 1.                                               4141700200040 
 235.98         0.08      1.41E-2    0.09E-2            1297.0    4141700200041 
                                                                  4141700200042 
 247.43         0.08      0.60E-2    0.10E-2            1210.1    4141700200043 
                                                                  4141700200044 
 258.17         0.05      1.5 E-2    0.2 E-2            1895.5    4141700200045 
                                                                  4141700200046 
 260.08         0.02      1.79E-1    0.9 E-2            1148.2    4141700200047 
                                                                  4141700200048 
 282.88         0.02      1.55E-1    0.8 E-2             548.5    4141700200049 
                                                                  4141700200050 
 289.4          0.3       0.16E-2    0.04E-2                      4141700200051 
                                                                  4141700200052 
 295.05         0.03      2.86E-2    0.15E-2            1570.8    4141700200053 
                                                                  4141700200054 
 311.22         0.05      1.20E-2    0.08E-2            1669.1    4141700200055 
                                                                  4141700200056 
 321.96         0.04      1.37E-2    0.08E-2            1210.1    4141700200057 
                                                                  4141700200058 
 329.7          0.3       0.20E-2    0.04E-2                      4141700200059 
                                                                  4141700200060 
 334.074        0.013     5.97E-2    0.30E-2            1297.0    4141700200061 
                                                                  4141700200062 
 347.49         0.05                            1.1 E-2 1408.5    4141700200063 
 1530.0          1.                                               4141700200064 
 361.4          0.3       0.19E-2    0.04E-2            1570.8    4141700200065 
 1637.3                                                           4141700200066 
 372.20         0.09      1.65E-2    0.10E-2             920.7    4141700200067 
                                                                  4141700200068 
 391.71         0.22      0.57E-2    0.05E-2            1574.3    4141700200069 
                                                                  4141700200070 
 411.4          1.1       0.09E-2    0.03E-2                      4141700200071 
                                                                  4141700200072 
 443.7          0.5       0.17E-2    0.05E-2                      4141700200073 
                                                                  4141700200074 
 451.99         0.22      0.33E-2    0.04E-2            1634.5    4141700200075 
                                                                  4141700200076 
 489.08         0.20      0.16E-2    0.04E-2                      4141700200077 
                                                                  4141700200078 
 523.5          0.3       0.24E-2    0.04E-2                      4141700200079 
                                                                  4141700200080 
 529.19         0.12      0.80E-2    0.06E-2            1739.1    4141700200081 
 1826.6                                                           4141700200082 
 542.1          0.5       0.19E-2    0.05E-2                      4141700200083 
                                                                  4141700200084 
 543.54         0.10      1.12E-2    0.08E-2            1691.4    4141700200085 
 1840.3                                                           4141700200086 
 551.1          0.6       0.27E-2    0.04E-2            1910.2    4141700200087 
                                                                  4141700200088 
 556.33         0.19      0.45E-2    0.05E-2            1766.4    4141700200089 
                                                                  4141700200090 
 565.77         0.22      0.27E-2    0.05E-2                      4141700200091 
                                                                  4141700200092 
 572.95         0.04      2.03E-2    0.11E-2            1535.7    4141700200093 
 1634.5                                                           4141700200094 
 588.8          0.5       0.12E-2    0.05E-2            1863.8    4141700200095 
                                                                  4141700200096 
 590.6          0.3       0.28E-2    0.05E-2            1739.1    4141700200097 
                                                                  4141700200098 
 610.93         0.22                            0.39E-2           4141700200099 
                                                                  4141700200100 
 616.2          0.5       0.17E-2    0.05E-2                      4141700200101 
                                                                  4141700200102 
 618.3          0.3       0.30E-2    0.06E-2            1766.4    4141700200103 
                                                                  4141700200104 
 622.40         0.14      0.38E-2    0.04E-2             888.2    4141700200105 
                                                                  4141700200106 
 630.48         0.22                            0.48E-2 1840.0    4141700200107 
                                                                  4141700200108 
 632.4          0.4       0.22E-2    0.05E-2                      4141700200109 
                                                                  4141700200110 
 634.15         0.06      1.49E-2    0.09E-2            1182.7    4141700200111 
                                                                  4141700200112 
 643.84         0.22      0.29E-2    0.05E-2            1826.6    4141700200113 
                                                                  4141700200114 
 647.53         0.03      3.03E-2    0.16E-2            1535.7    4141700200115 
                                                                  4141700200116 
 652.1          0.3       0.19E-2    0.04E-2                      4141700200117 
                                                                  4141700200118 
 654.1          0.4       0.18E-2    0.05E-2                      4141700200119 
                                                                  4141700200120 
 671.55         0.10      0.83E-2    0.06E-2            1634.5    4141700200121 
                                                                  4141700200122 
 678.05         0.13      0.42E-2    0.04E-2            1739.1    4141700200123 
                                                                  4141700200124 
 681.0          0.5       0.18E-2    0.05E-2                      4141700200125 
                                                                  4141700200126 
 684.8          0.2       0.16E-2    0.03E-2            1574.3    4141700200127 
                                                                  4141700200128 
 694.19         0.16      0.57E-2    0.06E-2                      4141700200129 
                                                                  4141700200130 
 697.29         0.02      5.3 E-2    0.3 E-2             962.9    4141700200131 
                                                                  4141700200132 
 711.69         0.13      0.60E-2    0.06E-2            2008.7    4141700200133 
                                                                  4141700200134 
 714.5          0.3       0.40E-2    0.05E-2                      4141700200135 
                                                                  4141700200136 
 720.8          0.4       0.09E-2    0.03E-2                      4141700200137 
                                                                  4141700200138 
 728.40         0.13      0.82E-2    0.06E-2            1691.4    4141700200139 
                                                                  4141700200140 
 747.24         0.13      0.51E-2    0.05E-2            1895.5    4141700200141 
 2071.7                                                           4141700200142 
 748.96         0.13      0.58E-2    0.05E-2                      4141700200143 
                                                                  4141700200144 
 765.3          0.4       0.10E-2    0.04E-2            1826.7    4141700200145 
                                                                  4141700200146 
 770.96         0.22      0.22E-2    0.04E-2            2128.8    4141700200147 
                                                                  4141700200148 
 775.93         0.06      1.12E-2    0.07E-2            1324.5    4141700200149 
                                                                  4141700200150 
 779.57         0.19      0.30E-2    0.05E-2            1840.4    4141700200151 
                                                                  4141700200152 
 791.3          0.4       0.29E-2    0.04E-2                      4141700200153 
                                                                  4141700200154 
 795.315        0.010     9.6 E-2    0.5 E-2            1061.0    4141700200155 
                                                                  4141700200156 
 801.3          0.6       0.12E-2    0.04E-2                      4141700200157 
                                                                  4141700200158 
 803.33         0.10                            1.0 E-2 1766.4    4141700200159 
                                                                  4141700200160 
 807.502        0.010     2.71E-1    1.4 E-2             888.2    4141700200161 
                                                                  4141700200162 
 812.8          0.3       0.17E-2    0.03E-2                      4141700200163 
                                                                  4141700200164 
 815.8          0.5       0.12E-2    0.03E-2                      4141700200165 
                                                                  4141700200166 
 819.76         0.13      0.40E-2    0.10E-2            1782.7    4141700200167 
                                                                  4141700200168 
 834.2          0.4       0.15E-2    0.04E-2            1895.5    4141700200169 
                                                                  4141700200170 
 842.27         0.07      1.41E-2    0.09E-2            1390.6    4141700200171 
                                                                  4141700200172 
 849.50         0.25      0.41E-2    0.05E-2            1739.1    4141700200173 
 1910.2                                                           4141700200174 
 853.8          0.4       0.09E-2    0.03E-2                      4141700200175 
                                                                  4141700200176 
 857.54         0.06      0.96E-2    0.06E-2            1745.8    4141700200177 
                                                                  4141700200178 
 863.77         0.13      0.54E-2    0.05E-2            1836.6    4141700200179 
                                                                  4141700200180 
 867.93         0.13                            0.70E-2           4141700200181 
                                                                  4141700200182 
 872.7          0.4       0.16E-2    0.03E-2                      4141700200183 
                                                                  4141700200184 
 878.54         0.10      0.84E-2    0.06E-2            1766.4    4141700200185 
 1840.6                                                           4141700200186 
 882.272        0.010     2.61E-1    1.3 E-2             962.9    4141700200187 
                                                                  4141700200188 
 888.150        0.010     2.44E-1    1.2 E-2             888.2    4141700200189 
                                                                  4141700200190 
 894.39         0.22      0.35E-2    0.05E-2            1782.8    4141700200191 
                                                                  4141700200192 
 900.80         0.19      0.44E-2    0.05E-2            1863.8    4141700200193 
                                                                  4141700200194 
 911.86         0.22      0.31E-2    0.04E-2            1973.0    4141700200195 
                                                                  4141700200196 
 917.089        0.015     5.41E-2    0.28E-2            1182.7    4141700200197 
                                                                  4141700200198 
 923.8          0.3       0.13E-2    0.03E-2            1886.8    4141700200199 
                                                                  4141700200200 
 932.5          0.3       0.22E-2    0.04E-2            1895.0    4141700200201 
                                                                  4141700200202 
 937.12         0.08      0.80E-2    0.06E-2            1485.6    4141700200203 
                                                                  4141700200204 
 942.12         0.11      0.51E-2    0.05E-2            1490.6    4141700200205 
                                                                  4141700200206 
 944.444        0.020     3.94E-2    0.20E-2            1210.1    4141700200207 
                                                                  4141700200208 
 947.35         0.16      0.51E-2    0.05E-2            1910.2    4141700200209 
                                                                  4141700200210 
 951.8          0.5       0.65E-3    0.26E-3            1840.6    4141700200211 
                                                                  4141700200212 
 956.0          0.3       0.19E-2    0.04E-2                      4141700200213 
                                                                  4141700200214 
 957.3          0.6       0.13E-2    0.04E-2                      4141700200215 
                                                                  4141700200216 
 969.74         0.10      0.68E-2    0.05E-2            1518.4    4141700200217 
                                                                  4141700200218 
 972.7          1.0       0.56E-3    0.28E-3                      4141700200219 
                                                                  4141700200220 
 975.64         0.06      1.26E-2    0.08E-2            1863.8    4141700200221 
                                                                  4141700200222 
 980.352        0.020     5.11E-2    0.26E-2            1061.0    4141700200223 
                                                                  4141700200224 
 992.75         0.29      0.15E-2    0.04E-2            2053.5    4141700200225 
                                                                  4141700200226 
1007.0          0.4       0.27E-2    0.04E-2            1895.5    4141700200227 
                                                                  4141700200228 
1010.09         0.19      0.51E-2    0.05E-2            1973.0    4141700200229 
                                                                  4141700200230 
1015.0          0.3                             0.40E-2           4141700200231 
                                                                  4141700200232 
1017.7          0.3       0.28E-2    0.05E-2                      4141700200233 
                                                                  4141700200234 
1022.07         0.16      0.38E-2    0.05E-2            1910.2    4141700200235 
                                                                  4141700200236 
1025.74         0.19      0.39E-2    0.05E-2            1574.3    4141700200237 
                                                                  4141700200238 
1041.6          0.5       0.24E-2    0.05E-2                      4141700200239 
                                                                  4141700200240 
1047.0          0.3       0.42E-2    0.06E-2                      4141700200241 
                                                                  4141700200242 
1058.76         0.16      0.59E-2    0.05E-2            1324.4    4141700200243 
                                                                  4141700200244 
1073.2          0.4       0.30E-2    0.04E-2                      4141700200245 
                                                                  4141700200246 
1079.1          0.5       0.12E-2    0.03E-2                      4141700200247 
                                                                  4141700200248 
1082.0          0.6       0.07E-2    0.03E-2                      4141700200249 
                                                                  4141700200250 
1088.40         0.19      0.45E-2    0.05E-2            1636.9    4141700200251 
                                                                  4141700200252 
1092.23         0.02      4.26E-2    0.22E-2            1357.9    4141700200253 
                                                                  4141700200254 
1107.8          0.4       0.12E-2    0.04E-2            2071.7    4141700200255 
                                                                  4141700200256 
1109.9          0.3       0.12E-2    0.04E-2                      4141700200257 
                                                                  4141700200258 
1114.3          0.4       0.23E-2    0.04E-2                      4141700200259 
                                                                  4141700200260 
1124.95         0.03      2.36E-2    0.13E-2            1390.6    4141700200261 
                                                                  4141700200262 
1129.424        0.015     6.7 E-2    0.3 E-2            1210.1    4141700200263 
                                                                  4141700200264 
1134.2          0.3       0.24E-2    0.5 E-2                      4141700200265 
                                                                  4141700200266 
1141.94         0.25      0.42E-2    0.04E-2                      4141700200267 
                                                                  4141700200268 
1152.9          0.6       0.19E-2    0.04E-2                      4141700200269 
                                                                  4141700200270 
1166.2          0.5       0.15E-2    0.04E-2                      4141700200271 
                                                                  4141700200272 
1169.2          0.5       0.13E-2    0.04E-2                      4141700200273 
                                                                  4141700200274 
1173.6          0.6       0.16E-2    0.04E-2                      4141700200275 
                                                                  4141700200276 
1178.4          0.6       0.20E-2    0.04E-2                      4141700200277 
                                                                  4141700200278 
1187.74         0.04      2.52E-2    0.13E-2            1453.4    4141700200279 
                                                                  4141700200280 
1195.109        0.015     9.0 E-2    0.4 E-2            1275.8    4141700200281 
                                                                  4141700200282 
1213.7          0.6       0.07E-2    0.03E-2                      4141700200283 
                                                                  4141700200284 
1217.76         0.13      0.69E-2    0.06E-2                      4141700200285 
                                                                  4141700200286 
1219.94         0.04      1.00E-2    0.11E-2            1485.6    4141700200287 
                                                                  4141700200288 
1223.31         0.25      0.26E-2    0.05E-2                      4141700200289 
                                                                  4141700200290 
1227.8          0.6       0.21E-2    0.08E-2                      4141700200291 
                                                                  4141700200292 
1232.3          0.4       0.11E-2    0.03E-2                      4141700200293 
                                                                  4141700200294 
1252.79         0.06      1.44E-2    0.08E-2            1418.4    4141700200295 
                                                                  4141700200296 
1257.3          0.9       0.09E-2    0.04E-2                      4141700200297 
                                                                  4141700200298 
1261.6          0.9       0.09E-2    0.04E-2                      4141700200299 
                                                                  4141700200300 
1267.6          0.6       0.14E-2    0.04E-2                      4141700200301 
                                                                  4141700200302 
1276.56         0.02      1.15E-1    0.6 E-2            1275.8    4141700200303 
 1357.9                                                           4141700200304 
1284.6          0.5       0.13E-2    0.03E-2                      4141700200305 
                                                                  4141700200306 
1297.9          0.3       0.18E-2    0.03E-2                      4141700200307 
                                                                  4141700200308 
1308.64         0.06      1.78E-2    0.10E-2            1574.3    4141700200309 
                                                                  4141700200310 
1312.3          0.3       0.28E-2    0.04E-2                      4141700200311 
                                                                  4141700200312 
1317.3          0.5       0.24E-2    0.05E-2                      4141700200313 
                                                                  4141700200314 
1319.65         0.04      2.44E-2    0.14E-2            1400.3    4141700200315 
                                                                  4141700200316 
1330.0          0.3       0.15E-2    0.04E-2                      4141700200317 
                                                                  4141700200318 
1332.4          0.3       0.20E-2    0.04E-2                      4141700200319 
                                                                  4141700200320 
1342.56         0.19      0.33E-2    0.04E-2                      4141700200321 
                                                                  4141700200322 
1350.75         0.25      0.23E-2    0.04E-2                      4141700200323 
                                                                  4141700200324 
1355.5          0.3       0.23E-2    0.04E-2                      4141700200325 
                                                                  4141700200326 
1372.80         0.04      3.50E-2    0.18E-2            1453.4    4141700200327 
                                                                  4141700200328 
1391.9          0.4       0.21E-2    0.05E-2                      4141700200329 
                                                                  4141700200330 
1394.5          0.4       0.34E-2    0.05E-2                      4141700200331 
                                                                  4141700200332 
1404.0          0.3       0.31E-2    0.04E-2            1669.1    4141700200333 
                                                                  4141700200334 
1428.1          0.5       0.09E-2    0.04E-2                      4141700200335 
                                                                  4141700200336 
1438.6          0.3       0.28E-2    0.04E-2                      4141700200337 
                                                                  4141700200338 
1462.92         0.13      0.81E-2    0.06E-2            1728.6    4141700200339 
                                                                  4141700200340 
1464.7          0.5       0.16E-2    0.04E-2                      4141700200341 
                                                                  4141700200342 
1468.9          1.5       0.10E-2    0.05E-2                      4141700200343 
                                                                  4141700200344 
1473.40         0.19      0.55E-2    0.05E-2            1739.1    4141700200345 
                                                                  4141700200346 
1483.2          0.5       0.06E-2    0.03E-2                      4141700200347 
                                                                  4141700200348 
1489.5          0.4       0.20E-2    0.04E-2                      4141700200349 
                                                                  4141700200350 
1496.2          0.6       0.10E-2    0.04E-2                      4141700200351 
                                                                  4141700200352 
1501.5          0.4       0.09E-2    0.03E-2            1766.4    4141700200353 
                                                                  4141700200354 
1516.6          0.3       0.14E-2    0.04E-2            1782.7    4141700200355 
                                                                  4141700200356 
1556.67         0.10      1.65E-2    0.09E-2            1637.3    4141700200357 
                                                                  4141700200358 
1574.82         0.25      0.22E-2    0.04E-2            1840.4    4141700200359 
                                                                  4141700200360 
1585.62         0.10      1.09E-2    0.07E-2            1666.3    4141700200361 
                                                                  4141700200362 
1602.1          0.3       0.33E-2    0.04E-2                      4141700200363 
                                                                  4141700200364 
1610.95         0.10      0.99E-2    0.07E-2            1691.4    4141700200365 
                                                                  4141700200366 
1637.32         0.22      0.40E-2    0.04E-2            1637.3    4141700200367 
                                                                  4141700200368 
1647.90         0.10      1.21E-2    0.07E-2            1728.6    4141700200369 
                                                                  4141700200370 
1658.5          0.3       0.16E-2    0.04E-2            1739.1    4141700200371 
                                                                  4141700200372 
1665.29         0.10      0.90E-2    0.06E-2            1615.3    4141700200373 
                                                                  4141700200374 
1684.1          0.5       0.18E-2    0.04E-2                      4141700200375 
                                                                  4141700200376 
1686.76         0.29      0.35E-2    0.05E-2            1951.6    4141700200377 
                                                                  4141700200378 
1698.3          0.5       0.57E-3    0.27E-3                      4141700200379 
                                                                  4141700200380 
1702.08         0.19      0.54E-2    0.05E-2            1702.1    4141700200381 
                                                                  4141700200382 
1708.3          1.0       0.12E-2    0.05E-2            1708.3    4141700200383 
                                                                  4141700200384 
1710.4          1.3       0.08E-2    0.05E-2                      4141700200385 
                                                                  4141700200386 
1716.0          0.7       0.17E-2    0.05E-2            1983.0    4141700200387 
                                                                  4141700200388 
1722.8          0.4       0.20E-2    0.05E-2                      4141700200389 
                                                                  4141700200390 
1728.58         0.19      0.66E-2    0.06E-2            1728.6    4141700200391 
                                                                  4141700200392 
1735.7          0.4       0.17E-2    0.04E-2            1816.4    4141700200393 
                                                                  4141700200394 
1757.3          0.6       0.15E-2    0.04E-2            1837.0    4141700200395 
                                                                  4141700200396 
1759.63         0.26      0.28E-2    0.04E-2            1759.6    4141700200397 
 1840.6                                                           4141700200398 
1767.9          0.7       0.83E-3    0.24E-3                      4141700200399 
                                                                  4141700200400 
1773.80         0.19      0.46E-2    0.05E-2            1773.8    4141700200401 
                                                                  4141700200402 
1782.8          0.2       0.61E-2    0.06E-2            1782.7    4141700200403 
                                                                  4141700200404 
1787.56         0.22      0.41E-2    0.05E-2            2053.5    4141700200405 
                                                                  4141700200406 
1798.2          0.4       0.20E-2    0.04E-2            1798.2    4141700200407 
                                                                  4141700200408 
1806.15         0.09      1.29E-2    0.08E-2            1886.8    4141700200409 
                                                                  4141700200410 
1814.92         0.09      1.22E-2    0.08E-2            2080.6    4141700200411 
                                                                  4141700200412 
1832.36         0.22      0.19E-2    0.05E-2            1832.4    4141700200413 
                                                                  4141700200414 
1837.04         0.13      0.31E-2    0.04E-2            1837.0    4141700200415 
                                                                  4141700200416 
1871.00         0.22      0.31E-2    0.04E-2            1951.6    4141700200417 
                                                                  4141700200418 
1902.29         0.12      1.09E-2    0.07E-2            1983.0    4141700200419 
                                                                  4141700200420 
1918.80         0.13      1.00E-2    0.07E-2            1999.2    4141700200421 
                                                                  4141700200422 
1940.3          0.5       0.17E-2    0.05E-2                      4141700200423 
                                                                  4141700200424 
1943.7          0.6       0.20E-2    0.05E-2                      4141700200425 
                                                                  4141700200426 
1950.6          0.3       0.38E-2    0.04E-2            1951.6    4141700200427 
                 1.                                               4141700200428 
1982.55         0.13      1.08E-2    0.07E-2            1983.0    4141700200429 
                                                                  4141700200430 
1992.0          1.0       0.13E-2    0.04E-2                      4141700200431 
                                                                  4141700200432 
1999.98         0.16      1.00E-2    0.07E-2            1999.2    4141700200433 
                                                                  4141700200434 
2022.1          0.3       0.38E-2    0.04E-2            2022.1    4141700200435 
                                                                  4141700200436 
2047.79         0.19      0.50E-2    0.05E-2            2128.6    4141700200437 
                                                                  4141700200438 
2067.92         0.16      0.56E-2    0.05E-2                      4141700200439 
                                                                  4141700200440 
2111.3          0.4       0.28E-2    0.04E-2            2192.0    4141700200441 
                                                                  4141700200442 
2124.1          0.4       0.21E-2    0.03E-2                      4141700200443 
                                                                  4141700200444 
2135.8          0.4       0.12E-2    0.04E-2            2216.4    4141700200445 
                                                                  4141700200446 
2233.3          0.5       0.30E-2    0.04E-2            2314.0    4141700200447 
                                                                  4141700200448 
2240.4          0.4       0.35E-2    0.05E-2            2240.4    4141700200449 
                                                                  4141700200450 
2274.7          1.2       0.23E-2    0.08E-2            2355.4    4141700200451 
                                                                  4141700200452 
2290.4          0.7       0.27E-2    0.07E-2            2290.4    4141700200453 
                                                                  4141700200454 
2305.9          0.8       0.38E-2    0.07E-2            2386.6    4141700200455 
                                                                  4141700200456 
2310.4          0.4       0.90E-2    0.09E-2            2310.4    4141700200457 
                                                                  4141700200458 
2315.1          1.2       0.29E-2    0.09E-2            2314.0    4141700200459 
                                                                  4141700200460 
2323.8          0.8       0.22E-2    0.6 E-2            2323.8    4141700200461 
                                                                  4141700200462 
2331.0          0.5       0.33E-2    0.06E-2                      4141700200463 
                                                                  4141700200464 
2339.6          0.8       0.17E-2    0.06E-2            2339.6    4141700200465 
                                                                  4141700200466 
2345.7          0.7       0.28E-2    0.06E-2            2345.7    4141700200467 
                                                                  4141700200468 
2349.7          0.7       0.28E-2    0.06E-2            2349.7    4141700200469 
                                                                  4141700200470 
2361.7          0.8       0.29E-2    0.06E-2            2361.7    4141700200471 
                                                                  4141700200472 
2369.4          0.6       0.28E-2    0.06E-2            2369.4    4141700200473 
                                                                  4141700200474 
2378.2          0.9       0.22E-2    0.07E-2            2458.9    4141700200475 
                                                                  4141700200476 
2382.2          1.0       0.21E-2    0.07E-2            2382.2    4141700200477 
                                                                  4141700200478 
2394.8          1.0       0.21E-2    0.06E-2            2394.8    4141700200479 
                                                                  4141700200480 
2399.4          0.6       0.35E-2    0.06E-2            2480.1    4141700200481 
                                                                  4141700200482 
2406.8          0.7       0.22E-2    0.05E-2            2487.5    4141700200483 
                                                                  4141700200484 
2418.1          0.7       0.16E-2    0.06E-2                      4141700200485 
                                                                  4141700200486 
2425.6          1.2       0.20E-2    0.07E-2                      4141700200487 
                                                                  4141700200488 
2429.6          1.0       0.25E-2    0.08E-2            2510.3    4141700200489 
                                                                  4141700200490 
2438.4          0.6       0.33E-2    0.06E-2            2438.4    4141700200491 
                                                                  4141700200492 
2442.4          1.0       0.22E-2    0.07E-2            2523.1    4141700200493 
                                                                  4141700200494 
2448.4          0.6       0.18E-2    0.05E-2            2529.1    4141700200495 
                                                                  4141700200496 
2455.3          1.0       0.26E-2    0.06E-2            2536.5    4141700200497 
                                                                  4141700200498 
2473.6          0.6       0.53E-2    0.07E-2            2554.3    4141700200499 
                                                                  4141700200500 
2490.9          0.6       0.43E-2    0.06E-2            2571.6    4141700200501 
                                                                  4141700200502 
2505.4          0.6       0.44E-2    0.06E-2                      4141700200503 
                                                                  4141700200504 
2519.7          0.5       0.47E-2    0.06E-2            2519.7    4141700200505 
                                                                  4141700200506 
2532.3          1.2       0.19E-2    0.06E-2                      4141700200507 
                                                                  4141700200508 
2537.5          1.0       0.23E-2    0.07E-2            2536.5    4141700200509 
                                                                  4141700200510 
2550.6          1.1       0.21E-2    0.07E-2            2550.6    4141700200511 
                                                                  4141700200512 
2554.5          1.0       0.25E-2    0.07E-2            2554.3    4141700200513 
                                                                  4141700200514 
2562.7          1.3       0.14E-2    0.05E-2            2643.4    4141700200515 
                                                                  4141700200516 
2569.3          1.2       0.16E-2    0.06E-2            2569.3    4141700200517 
                                                                  4141700200518 
2587.4          0.7       0.30E-2    0.05E-2                      4141700200519 
                                                                  4141700200520 
2628.9          1.0       0.08E-2    0.03E-2            2709.6    4141700200521 
                                                                  4141700200522 
2644.7          0.7       0.31E-2    0.05E-2                      4141700200523 
                                                                  4141700200524 
2663.0          0.8       0.13E-2    0.04E-2            2663.0    4141700200525 
                                                                  4141700200526 
2669.4          1.5       0.14E-2    0.05E-2            2750.1    4141700200527 
                                                                  4141700200528 
2674.5          1.4       0.16E-2    0.06E-2                      4141700200529 
                                                                  4141700200530 
2692.3          2.0       0.11E-2    0.06E-2                      4141700200531 
                                                                  4141700200532 
2697.4          1.1       0.21E-2    0.07E-2            2778.1    4141700200533 
                                                                  4141700200534 
2721.3          0.9       0.13E-2    0.05E-2            2801.9    4141700200535 
                                                                  4141700200536 
2734.3          1.0       0.23E-2    0.05E-2                      4141700200537 
                                                                  4141700200538 
2745.0          1.2       0.26E-2    0.05E-2                      4141700200539 
                                                                  4141700200540 
2756.9          1.1       0.22E-2    0.05E-2                      4141700200541 
                                                                  4141700200542 
2786.2          1.2       0.12E-2    0.05E-2                      4141700200543 
                                                                  4141700200544 
2788.6          0.8       0.19E-2    0.06E-2            2788.6    4141700200545 
                                                                  4141700200546 
2803.2          0.8       0.26E-2    0.05E-2            2801.9    4141700200547 
                                                                  4141700200548 
2821.1          1.6       0.15E-2    0.06E-2            2901.8    4141700200549 
                                                                  4141700200550 
2829.0          1.3       0.20E-2    0.07E-2            2909.6    4141700200551 
                                                                  4141700200552 
2840.2          1.0       0.23E-2    0.05E-2            2960.9    4141700200553 
                                                                  4141700200554 
2902.1          0.6       0.27E-2    0.05E-2            2901.8    4141700200555 
                                                                  4141700200556 
2929.2          1.0       0.12E-2    0.04E-2            2929.2    4141700200557 
                                                                  4141700200558 
2945.3          0.9       0.13E-2    0.04E-2                      4141700200559 
                                                                  4141700200560 
2990.6          0.7       0.23E-2    0.04E-2            2990.6    4141700200561 
 3071.3                                                           4141700200562 
2999.1          1.4       0.06E-2    0.03E-2                      4141700200563 
                                                                  4141700200564 
3014.0          0.9       0.27E-2    0.05E-2            3014.0    4141700200565 
                                                                  4141700200566 
3148.2          0.9       0.10E-2    0.03E-2                      4141700200567 
                                                                  4141700200568 
ENDDATA            546          0                                 4141700200569 
ENDSUBENT          568          0                                 4141700299999 
SUBENT        41417003   20131212                             41624141700300001 
BIB                  6         15                                 4141700300002 
REACTION   (66-DY-162(N,INL)66-DY-162,PAR,DA,G,LEG/RS/FIS)        4141700300003 
EN-SEC      LVL-INI - initial level of 66-DY-162                  4141700300004 
ANALYSIS   To define angular distributions - spectrum was measured4141700300005 
           at angles 90, 105,115,125,142,150 deg.                 4141700300006 
           For normalization of gamma-intensities at different    4141700300007 
           angles the transition 1- -> 2+ of 1195.109 keV was used4141700300008 
           which theoretical angular distribution has Legendre    4141700300009 
           polynomials coefficients a2=-0.016, a4=0.              4141700300010 
MISC-COL   (MISC1)   Spin of the initial level                    4141700300011 
           (MISC2)   Parity of the initial level                  4141700300012 
           (MISC3)   Spin of the final level                      4141700300013 
           (MISC4)   Parity of the final level                    4141700300014 
ERR-ANALYS (ERR-S)   Statistical error at 68% confidence level    4141700300015 
            LVL-INI-ER -  Error in initial level energy           4141700300016 
STATUS     (TABLE) Table 2 of J,YF,65,(5),819,2002                4141700300017 
ENDBIB              15          0                                 4141700300018 
NOCOMMON             0          0                                 4141700300019 
DATA                10         64                                 4141700300020 
E          NUMBER     DATA       ERR-S      LVL-INI    LVL-INI-ER 4141700300021 
MISC1      MISC2      MISC3      MISC4                            4141700300022 
KEV        NO-DIM     NO-DIM     NO-DIM     KEV        KEV        4141700300023 
NO-DIM     NO-DIM     NO-DIM     NO-DIM                           4141700300024 
 185.061        2.      +0.33    0.11        265.6628             4141700300025 
       4.       +1.        2.         +1.                         4141700300026 
 185.061        4.      -0.19    0.11        265.6628             4141700300027 
       4.       +1.        2.         +1.                         4141700300028 
 260.08         2.      +0.20    0.06       1148.24         0.03  4141700300029 
       2.       -1.        2.         +1.                         4141700300030 
 260.08         4.      -0.05    0.08       1148.24         0.03  4141700300031 
       2.       -1.        2.         +1.                         4141700300032 
 282.88         2.      +0.44    0.04        548.5184             4141700300033 
       6.       +1.        4.         +1.                         4141700300034 
 282.88         4.      -0.07    0.06        548.5184             4141700300035 
       6.       +1.        4.         +1.                         4141700300036 
 295.05         2.      -0.10    0.05       1570.83         0.03  4141700300037 
       3.       -1.        1.         -1.                         4141700300038 
 295.05         4.      -0.06    0.07       1570.83         0.03  4141700300039 
       3.       -1.        1.         -1.                         4141700300040 
 321.96         2.      -0.215   0.030      1210.093        0.013 4141700300041 
       3.       -1.        2.         +1.                         4141700300042 
 321.96         4.      -0.006   0.041      1210.093        0.013 4141700300043 
       3.       -1.        2.         +1.                         4141700300044 
 334.074        2.      -0.215   0.030      1297.006        0.016 4141700300045 
       4.       -1.        3.         +1.                         4141700300046 
 334.074        4.      -0.01    0.04       1297.006        0.016 4141700300047 
       4.       -1.        3.         +1.                         4141700300048 
 372.20         2.      +0.22    0.07        920.72         0.09  4141700300049 
       8.       +1.        6.         +1.                         4141700300050 
 372.20         4.      -0.14    0.10        920.72         0.09  4141700300051 
       8.       +1.        6.         +1.                         4141700300052 
 634.15         2.      -0.05    0.08       1182.743        0.015 4141700300053 
       5.       +1.        6.         +1.                         4141700300054 
 634.15         4.      +0.01    0.10       1182.743        0.015 4141700300055 
       5.       +1.        6.         +1.                         4141700300056 
 647.53         2.      +0.36    0.05       1535.69         0.03  4141700300057 
       4.       +1.        2.         +1.                         4141700300058 
 647.53         4.      -0.08    0.07       1535.69         0.03  4141700300059 
       4.       +1.        2.         +1.                         4141700300060 
 697.29         2.      -0.197   0.023       962.932        0.010 4141700300061 
       3.       +1.        4.         +1.                         4141700300062 
 697.29         4.      +0.009   0.031       962.932        0.010 4141700300063 
       3.       +1.        4.         +1.                         4141700300064 
 795.315        2.      -0.147   0.017      1060.990        0.008 4141700300065 
       4.       +1.        4.         +1.                         4141700300066 
 795.315        4.      -0.097   0.024      1060.990        0.008 4141700300067 
       4.       +1.        4.         +1.                         4141700300068 
 807.502        2.      -0.035   0.012       888.156        0.007 4141700300069 
       2.       +1.        2.         +1.                         4141700300070 
 807.502        4.      -0.010   0.016       888.156        0.007 4141700300071 
       2.       +1.        2.         +1.                         4141700300072 
 857.54         2.      -0.09    0.07       1745.77         0.06  4141700300073 
       1.       +1.        2.         +1.                         4141700300074 
 857.54         4.       0.0                1745.77         0.06  4141700300075 
       1.       +1.        2.         +1.                         4141700300076 
 878.54         2.      +0.20    0.15       1766.44         0.19  4141700300077 
       3.       -1.        2.         +1.                         4141700300078 
 878.54         4.       0.0                1766.44         0.19  4141700300079 
       3.       -1.        2.         +1.                         4141700300080 
 882.272        2.      +0.095   0.013       962.932        0.010 4141700300081 
       3.       +1.        2.         +1.                         4141700300082 
 882.272        4.      +0.107   0.017       962.932        0.010 4141700300083 
       3.       +1.        2.         +1.                         4141700300084 
 888.150        2.      +0.225   0.010       888.156        0.007 4141700300085 
       2.       +1.        0.         +1.                         4141700300086 
 888.150        4.      -0.043   0.015       888.156        0.007 4141700300087 
       2.       +1.        0.         +1.                         4141700300088 
 917.089        2.      +0.039   0.024      1182.743        0.015 4141700300089 
       5.       +1.        4.         +1.                         4141700300090 
 917.089        4.      +0.21    0.03       1182.743        0.015 4141700300091 
       5.       +1.        4.         +1.                         4141700300092 
 944.444        2.      -0.007   0.034      1210.093        0.013 4141700300093 
       3.       -1.        4.         +1.                         4141700300094 
 944.444        4.      +0.015   0.042      1210.093        0.013 4141700300095 
       3.       -1.        4.         +1.                         4141700300096 
 980.352        2.      -0.340   0.029      1060.990        0.008 4141700300097 
       4.       +1.        2.         +1.                         4141700300098 
 980.352        4.      -0.056   0.035      1060.990        0.008 4141700300099 
       4.       +1.        2.         +1.                         4141700300100 
1092.23         2.      -0.020   0.021      1357.89         0.02  4141700300101 
       3.       -1.        4.         +1.                         4141700300102 
1092.23         4.      -0.01    0.04       1357.89         0.02  4141700300103 
       3.       -1.        4.         +1.                         4141700300104 
1124.95         2.      -0.14    0.04       1390.61         0.03  4141700300105 
       5.       -1.        4.         +1.                         4141700300106 
1124.95         4.      +0.03    0.06       1390.61         0.03  4141700300107 
       5.       -1.        4.         +1.                         4141700300108 
1129.424        2.      -0.16    0.03       1210.093        0.013 4141700300109 
       3.       -1.        2.         +1.                         4141700300110 
1129.424        4.      +0.05    0.04       1210.093        0.013 4141700300111 
       3.       -1.        2.         +1.                         4141700300112 
1187.74         2.      +0.15    0.03       1453.43         0.04  4141700300113 
       2.       +1.        4.         +1.                         4141700300114 
1187.74         4.      +0.04    0.03       1453.43         0.04  4141700300115 
       2.       +1.        4.         +1.                         4141700300116 
1195.109        2.      -0.016   0.007      1275.769        0.015 4141700300117 
       1.       -1.        2.         +1.                         4141700300118 
1195.109        4.      +0.002   0.011      1275.769        0.015 4141700300119 
       1.       -1.        2.         +1.                         4141700300120 
1308.64         2.      +0.35    0.06       1574.30         0.06  4141700300121 
       4.       +1.        4.         +1.                         4141700300122 
1308.64         4.      +0.07    0.08       1574.30         0.06  4141700300123 
       4.       +1.        4.         +1.                         4141700300124 
1319.65         2.      -0.006   0.033      1400.31         0.04  4141700300125 
       0.       +1.        2.         +1.                         4141700300126 
1319.65         4.      -0.016   0.040      1400.31         0.04  4141700300127 
       0.       +1.        2.         +1.                         4141700300128 
1372.80         2.      +0.34    0.03       1453.43         0.04  4141700300129 
       2.       +1.        2.         +1.                         4141700300130 
1372.80         4.      -0.06    0.05       1453.43         0.04  4141700300131 
       2.       +1.        2.         +1.                         4141700300132 
1556.67         2.      +0.05    0.05       1637.33         0.10  4141700300133 
       1.       -1.        2.         +1.                         4141700300134 
1556.67         4.       0.00               1637.33         0.10  4141700300135 
       1.       -1.        2.         +1.                         4141700300136 
1610.95         2.      +0.20    0.14       1691.37         0.13  4141700300137 
       2.       -1.        2.         +1.                         4141700300138 
1610.95         4.      -0.02    0.14       1691.37         0.13  4141700300139 
       2.       -1.        2.         +1.                         4141700300140 
1647.90         2.      +0.07    0.08       1728.56         0.08  4141700300141 
       2.       +1.        2.         +1.                         4141700300142 
1647.90         4.      -0.08    0.10       1728.56         0.08  4141700300143 
       2.       +1.        2.         +1.                         4141700300144 
1665.29         2.      -0.03    0.06       1745.77         0.06  4141700300145 
       1.       +1.        2.         +1.                         4141700300146 
1665.29         4.       0.0                1745.77         0.06  4141700300147 
       1.       +1.        2.         +1.                         4141700300148 
1806.15         2.      +0.38    0.05       1886.81         0.09  4141700300149 
       4.       +1.        2.         +1.                         4141700300150 
1806.15         4.      +0.08    0.07       1886.81         0.09  4141700300151 
       4.       +1.        2.         +1.                         4141700300152 
ENDDATA            132          0                                 4141700300153 
ENDSUBENT          152          0                                 4141700399999 
ENDENTRY             3          0                                 4141799999999 
