ENTRY            10132   20130503                             13911013200000001 
SUBENT        10132001   20130503                             13911013200100001 
BIB                 13         37                                 1013200100002 
TITLE      Neutron scattering cross sections of 233U, 235U and    1013200100003 
            239Pu.                                                1013200100004 
AUTHOR     (F.B.Simpson,L.G.Miller,M.S.Moore,R.W.Hockenbury,      1013200100005 
           T.J.King)                                              1013200100006 
REFERENCE  (J,NP/A,164,34,1971)                                   1013200100007 
           #doi:10.1016/0375-9474(71)90841-4                      1013200100008 
INSTITUTE  (1USARPI,1USAMTR)                                      1013200100009 
FACILITY   (LINAC,1USARPI)                                        1013200100010 
SAMPLE     Inverse sample thicknesses were 188, 211 and 435 B/atom1013200100011 
            for 233U, 235U and 239Pu, respectively, at 45 degrees 1013200100012 
           to the beam.                                           1013200100013 
METHOD     (TOF) 0.25 msec pulses, at 480 Hz repetition rate.     1013200100014 
            Peak current = 3 Amp.                                 1013200100015 
PART-DET   (N)                                                    1013200100016 
DETECTOR   (PROPC) Two BF3 scattered neutron detectors, one BF3   1013200100017 
           transmission detector and one BF3 flux monitor.        1013200100018 
           Scattered neutron detectors at 90 degrees to the       1013200100019 
           neutron beam.                                          1013200100020 
CORRECTION Corrections were made for:                             1013200100021 
           . dead-time,                                           1013200100022 
           . neutron monitor efficiency,                          1013200100023 
           . neutrons scattered near zero degrees that were       1013200100024 
             detected by transmission detector,                   1013200100025 
           . differences in detector resolutions,                 1013200100026 
           . flight-path differences,                             1013200100027 
           . sample self-shielding and multiple scattering.       1013200100028 
ERR-ANALYS (ERR-1,5.,10.) Multiple scattering error.              1013200100029 
           (ERR-S,3.,30.) Statistical errors.                     1013200100030 
STATUS     (APRVD) Approved by author.                            1013200100031 
HISTORY    (19720608C)                                            1013200100032 
           (19750905A) Bib changes.                               1013200100033 
           (19820527A) Converted to reaction formalism            1013200100034 
           (20000321A) converted to new date format, lower case.  1013200100035 
           (20130503A) BP: corrections according last EXFOR rules 1013200100036 
           and Dict. Digitized Fig. 2-5 and updated subentries    1013200100037 
           4-6 and reaction strings, updated detectors and error  1013200100038 
           analysis.                                              1013200100039 
ENDBIB              37          0                                 1013200100040 
NOCOMMON             0          0                                 1013200100041 
ENDSUBENT           40          0                                 1013200199999 
SUBENT        10132002   20000321                             00001013200200001 
BIB                  3          3                                 1013200200002 
REACTION   (94-PU-239(N,0),,J)                                    1013200200003 
ANALYSIS   Isotropic (s-wave) scattering assumed.                 1013200200004 
FLAG       (1.) Spin assignment uncertain.                        1013200200005 
ENDBIB               3          0                                 1013200200006 
NOCOMMON             0          0                                 1013200200007 
DATA                 3         23                                 1013200200008 
EN-RES     DATA       FLAG                                        1013200200009 
EV         NO-DIM     NO-DIM                                      1013200200010 
  7.82     1.                                                     1013200200011 
 10.93     1.                                                     1013200200012 
 11.89     1.                                                     1013200200013 
 14.31     1.          1.                                         1013200200014 
 14.69     1.                                                     1013200200015 
 17.66     1.                                                     1013200200016 
 22.28     1.                                                     1013200200017 
 26.29     1.                                                     1013200200018 
 32.38     0.          1.                                         1013200200019 
 41.42     1.                                                     1013200200020 
 44.48     1.                                                     1013200200021 
 47.60     1.          1.                                         1013200200022 
 50.08     1.                                                     1013200200023 
 52.60     1.                                                     1013200200024 
 55.63     1.          1.                                         1013200200025 
 57.44     0.                                                     1013200200026 
 59.22     1.                                                     1013200200027 
 65.71     1.                                                     1013200200028 
 74.95     1.                                                     1013200200029 
 85.7      1.                                                     1013200200030 
 90.8      1.                                                     1013200200031 
106.8      0.          1.                                         1013200200032 
119.       1.                                                     1013200200033 
ENDDATA             25          0                                 1013200200034 
ENDSUBENT           33          0                                 1013200299999 
SUBENT        10132003   20000321                             00001013200300001 
BIB                  3          3                                 1013200300002 
REACTION   (92-U-235(N,0),,J)                                     1013200300003 
ANALYSIS   Isotropic (s-wave) scattering assumed.                 1013200300004 
FLAG       (1.) Spin assignment uncertain                         1013200300005 
ENDBIB               3          0                                 1013200300006 
NOCOMMON             0          0                                 1013200300007 
DATA                 3          4                                 1013200300008 
EN-RES     DATA       FLAG                                        1013200300009 
EV         NO-DIM     NO-DIM                                      1013200300010 
 8.79      3.                                                     1013200300011 
11.67      4.                                                     1013200300012 
12.39      4.          1.                                         1013200300013 
19.29      4.                                                     1013200300014 
ENDDATA              6          0                                 1013200300015 
ENDSUBENT           14          0                                 1013200399999 
SUBENT        10132004   20130503                             13911013200400001 
BIB                  3          8                                 1013200400002 
REACTION   (92-U-233(N,EL)92-U-233,,SIG,,RAW)                     1013200400003 
COMMENT    Compiler comment: Poor resolution data measured to     1013200400004 
           determine spins. Cross section curves are              1013200400005 
           contaminated with resonance peaks from 234U at 5 and   1013200400006 
           48 eV and 238U at 7, 21, 37, 66, 120 and 190 eV.       1013200400007 
           Consequently, it is rather RAW than final data.        1013200400008 
           Combined 5 spectra in to single spectrum.              1013200400009 
STATUS     (CURVE) Fig.2-3, pages 43-44.                          1013200400010 
ENDBIB               8          0                                 1013200400011 
NOCOMMON             0          0                                 1013200400012 
DATA                 2        554                                 1013200400013 
EN         DATA                                                   1013200400014 
EV         B                                                      1013200400015 
  6.054E-01  1.101E+01                                            1013200400016 
  7.505E-01  1.118E+01                                            1013200400017 
  8.543E-01  1.101E+01                                            1013200400018 
  9.373E-01  1.084E+01                                            1013200400019 
  1.062E+00  1.109E+01                                            1013200400020 
  1.124E+00  1.042E+01                                            1013200400021 
  1.248E+00  1.042E+01                                            1013200400022 
  1.352E+00  1.016E+01                                            1013200400023 
  1.456E+00  9.401E+00                                            1013200400024 
  1.560E+00  8.131E+00                                            1013200400025 
  1.664E+00  8.301E+00                                            1013200400026 
  1.745E+00  1.347E+01                                            1013200400027 
  1.849E+00  1.296E+01                                            1013200400028 
  2.015E+00  1.178E+01                                            1013200400029 
  2.139E+00  1.220E+01                                            1013200400030 
  2.285E+00  1.025E+01                                            1013200400031 
  2.512E+00  1.500E+01                                            1013200400032 
  2.699E+00  1.390E+01                                            1013200400033 
  2.948E+00  1.297E+01                                            1013200400034 
  3.093E+00  1.212E+01                                            1013200400035 
  3.217E+00  1.263E+01                                            1013200400036 
  3.342E+00  1.280E+01                                            1013200400037 
  3.529E+00  1.246E+01                                            1013200400038 
  3.715E+00  1.424E+01                                            1013200400039 
  3.922E+00  1.306E+01                                            1013200400040 
  4.026E+00  1.323E+01                                            1013200400041 
  4.109E+00  1.306E+01                                            1013200400042 
  4.275E+00  1.238E+01                                            1013200400043 
  4.897E+00  1.222E+01                                            1013200400044 
  5.021E+00  1.256E+01                                            1013200400045 
  5.061E+00  1.646E+01                                            1013200400046 
  5.102E+00  1.832E+01                                            1013200400047 
  5.266E+00  2.383E+01                                            1013200400048 
  5.351E+00  1.942E+01                                            1013200400049 
  5.373E+00  1.561E+01                                            1013200400050 
  5.436E+00  1.383E+01                                            1013200400051 
  5.498E+00  1.222E+01                                            1013200400052 
  5.623E+00  1.171E+01                                            1013200400053 
  5.892E+00  1.273E+01                                            1013200400054 
  6.079E+00  1.248E+01                                            1013200400055 
  6.142E+00  1.155E+01                                            1013200400056 
  6.225E+00  1.062E+01                                            1013200400057 
  6.411E+00  1.087E+01                                            1013200400058 
  6.597E+00  1.435E+01                                            1013200400059 
  6.679E+00  1.528E+01                                            1013200400060 
  6.720E+00  1.706E+01                                            1013200400061 
  6.780E+00  2.231E+01                                            1013200400062 
  6.824E+00  1.570E+01                                            1013200400063 
  6.842E+00  2.350E+01                                            1013200400064 
  6.883E+00  2.536E+01                                            1013200400065 
  7.009E+00  2.096E+01                                            1013200400066 
  7.011E+00  1.613E+01                                            1013200400067 
  7.094E+00  1.545E+01                                            1013200400068 
  7.218E+00  1.715E+01                                            1013200400069 
  7.281E+00  1.537E+01                                            1013200400070 
  7.364E+00  1.291E+01                                            1013200400071 
  7.385E+00  1.342E+01                                            1013200400072 
  7.427E+00  1.249E+01                                            1013200400073 
  7.571E+00  1.410E+01                                            1013200400074 
  7.613E+00  1.241E+01                                            1013200400075 
  7.841E+00  1.342E+01                                            1013200400076 
  7.882E+00  1.393E+01                                            1013200400077 
  8.048E+00  1.368E+01                                            1013200400078 
  8.235E+00  1.402E+01                                            1013200400079 
  8.339E+00  1.351E+01                                            1013200400080 
  8.380E+00  1.351E+01                                            1013200400081 
  8.526E+00  1.207E+01                                            1013200400082 
  8.588E+00  1.165E+01                                            1013200400083 
  8.692E+00  1.182E+01                                            1013200400084 
  8.795E+00  1.241E+01                                            1013200400085 
  8.941E+00  1.199E+01                                            1013200400086 
  9.044E+00  1.258E+01                                            1013200400087 
  9.127E+00  1.309E+01                                            1013200400088 
  9.210E+00  1.258E+01                                            1013200400089 
  9.335E+00  1.199E+01                                            1013200400090 
  9.397E+00  1.064E+01                                            1013200400091 
  9.604E+00  1.233E+01                                            1013200400092 
  9.667E+00  1.072E+01                                            1013200400093 
  9.688E+00  1.013E+01                                            1013200400094 
  9.812E+00  1.030E+01                                            1013200400095 
  9.978E+00  1.022E+01                                            1013200400096 
  9.998E+00  1.149E+01                                            1013200400097 
  1.006E+01  1.200E+01                                            1013200400098 
  1.014E+01  1.234E+01                                            1013200400099 
  1.027E+01  1.683E+01                                            1013200400100 
  1.037E+01  1.556E+01                                            1013200400101 
  1.043E+01  2.056E+01                                            1013200400102 
  1.049E+01  2.115E+01                                            1013200400103 
  1.060E+01  2.030E+01                                            1013200400104 
  1.064E+01  1.810E+01                                            1013200400105 
  1.070E+01  1.641E+01                                            1013200400106 
  1.076E+01  2.013E+01                                            1013200400107 
  1.087E+01  1.573E+01                                            1013200400108 
  1.095E+01  1.454E+01                                            1013200400109 
  1.101E+01  1.336E+01                                            1013200400110 
  1.108E+01  1.285E+01                                            1013200400111 
  1.116E+01  1.234E+01                                            1013200400112 
  1.135E+01  1.404E+01                                            1013200400113 
  1.141E+01  1.243E+01                                            1013200400114 
  1.151E+01  1.294E+01                                            1013200400115 
  1.159E+01  1.218E+01                                            1013200400116 
  1.174E+01  1.302E+01                                            1013200400117 
  1.182E+01  1.201E+01                                            1013200400118 
  1.186E+01  1.286E+01                                            1013200400119 
  1.191E+01  1.142E+01                                            1013200400120 
  1.197E+01  1.353E+01                                            1013200400121 
  1.207E+01  1.150E+01                                            1013200400122 
  1.213E+01  1.277E+01                                            1013200400123 
  1.222E+01  1.354E+01                                            1013200400124 
  1.234E+01  1.227E+01                                            1013200400125 
  1.247E+01  1.277E+01                                            1013200400126 
  1.263E+01  1.608E+01                                            1013200400127 
  1.275E+01  1.574E+01                                            1013200400128 
  1.288E+01  1.769E+01                                            1013200400129 
  1.288E+01  1.693E+01                                            1013200400130 
  1.296E+01  1.905E+01                                            1013200400131 
  1.325E+01  1.354E+01                                            1013200400132 
  1.331E+01  1.456E+01                                            1013200400133 
  1.336E+01  1.549E+01                                            1013200400134 
  1.342E+01  1.481E+01                                            1013200400135 
  1.356E+01  1.354E+01                                            1013200400136 
  1.363E+01  1.278E+01                                            1013200400137 
  1.379E+01  1.304E+01                                            1013200400138 
  1.383E+01  1.227E+01                                            1013200400139 
  1.394E+01  1.338E+01                                            1013200400140 
  1.396E+01  1.278E+01                                            1013200400141 
  1.410E+01  1.397E+01                                            1013200400142 
  1.410E+01  1.261E+01                                            1013200400143 
  1.417E+01  1.194E+01                                            1013200400144 
  1.429E+01  1.194E+01                                            1013200400145 
  1.437E+01  1.228E+01                                            1013200400146 
  1.446E+01  1.338E+01                                            1013200400147 
  1.460E+01  1.202E+01                                            1013200400148 
  1.468E+01  1.355E+01                                            1013200400149 
  1.473E+01  1.143E+01                                            1013200400150 
  1.487E+01  1.398E+01                                            1013200400151 
  1.487E+01  1.194E+01                                            1013200400152 
  1.489E+01  1.406E+01                                            1013200400153 
  1.499E+01  1.296E+01                                            1013200400154 
  1.506E+01  1.542E+01                                            1013200400155 
  1.514E+01  1.449E+01                                            1013200400156 
  1.522E+01  1.466E+01                                            1013200400157 
  1.524E+01  1.686E+01                                            1013200400158 
  1.533E+01  1.499E+01                                            1013200400159 
  1.543E+01  1.415E+01                                            1013200400160 
  1.549E+01  1.339E+01                                            1013200400161 
  1.558E+01  1.305E+01                                            1013200400162 
  1.568E+01  1.279E+01                                            1013200400163 
  1.574E+01  1.373E+01                                            1013200400164 
  1.578E+01  1.551E+01                                            1013200400165 
  1.591E+01  1.373E+01                                            1013200400166 
  1.599E+01  1.432E+01                                            1013200400167 
  1.605E+01  1.339E+01                                            1013200400168 
  1.615E+01  1.729E+01                                            1013200400169 
  1.622E+01  1.339E+01                                            1013200400170 
  1.630E+01  1.466E+01                                            1013200400171 
  1.636E+01  1.407E+01                                            1013200400172 
  1.649E+01  1.585E+01                                            1013200400173 
  1.657E+01  1.322E+01                                            1013200400174 
  1.669E+01  1.517E+01                                            1013200400175 
  1.684E+01  1.339E+01                                            1013200400176 
  1.703E+01  1.416E+01                                            1013200400177 
  1.703E+01  1.306E+01                                            1013200400178 
  1.721E+01  1.348E+01                                            1013200400179 
  1.723E+01  1.213E+01                                            1013200400180 
  1.742E+01  1.247E+01                                            1013200400181 
  1.759E+01  1.238E+01                                            1013200400182 
  1.763E+01  1.391E+01                                            1013200400183 
  1.775E+01  1.196E+01                                            1013200400184 
  1.779E+01  1.408E+01                                            1013200400185 
  1.792E+01  1.162E+01                                            1013200400186 
  1.802E+01  1.399E+01                                            1013200400187 
  1.811E+01  1.154E+01                                            1013200400188 
  1.815E+01  1.272E+01                                            1013200400189 
  1.831E+01  1.256E+01                                            1013200400190 
  1.835E+01  1.213E+01                                            1013200400191 
  1.846E+01  1.349E+01                                            1013200400192 
  1.852E+01  1.290E+01                                            1013200400193 
  1.871E+01  1.502E+01                                            1013200400194 
  1.875E+01  1.290E+01                                            1013200400195 
  1.879E+01  1.425E+01                                            1013200400196 
  1.891E+01  1.366E+01                                            1013200400197 
  1.905E+01  1.595E+01                                            1013200400198 
  1.913E+01  1.452E+01                                            1013200400199 
  1.927E+01  1.427E+01                                            1013200400200 
  1.940E+01  1.545E+01                                            1013200400201 
  1.942E+01  1.452E+01                                            1013200400202 
  1.952E+01  1.301E+01                                            1013200400203 
  1.958E+01  1.537E+01                                            1013200400204 
  1.969E+01  1.318E+01                                            1013200400205 
  1.973E+01  1.470E+01                                            1013200400206 
  1.981E+01  1.309E+01                                            1013200400207 
  1.992E+01  1.141E+01                                            1013200400208 
  1.996E+01  1.403E+01                                            1013200400209 
  2.008E+01  1.276E+01                                            1013200400210 
  2.017E+01  1.369E+01                                            1013200400211 
  2.021E+01  1.302E+01                                            1013200400212 
  2.039E+01  1.386E+01                                            1013200400213 
  2.046E+01  1.142E+01                                            1013200400214 
  2.058E+01  1.277E+01                                            1013200400215 
  2.062E+01  1.488E+01                                            1013200400216 
  2.068E+01  1.699E+01                                            1013200400217 
  2.074E+01  1.936E+01                                            1013200400218 
  2.086E+01  1.961E+01                                            1013200400219 
  2.092E+01  2.206E+01                                            1013200400220 
  2.105E+01  2.088E+01                                            1013200400221 
  2.107E+01  1.793E+01                                            1013200400222 
  2.118E+01  1.438E+01                                            1013200400223 
  2.126E+01  1.346E+01                                            1013200400224 
  2.133E+01  1.456E+01                                            1013200400225 
  2.139E+01  1.321E+01                                            1013200400226 
  2.159E+01  1.642E+01                                            1013200400227 
  2.164E+01  1.431E+01                                            1013200400228 
  2.176E+01  1.828E+01                                            1013200400229 
  2.184E+01  1.684E+01                                            1013200400230 
  2.189E+01  1.431E+01                                            1013200400231 
  2.203E+01  1.457E+01                                            1013200400232 
  2.207E+01  1.803E+01                                            1013200400233 
  2.215E+01  2.082E+01                                            1013200400234 
  2.225E+01  2.369E+01                                            1013200400235 
  2.232E+01  1.727E+01                                            1013200400236 
  2.242E+01  1.930E+01                                            1013200400237 
  2.252E+01  2.116E+01                                            1013200400238 
  2.255E+01  1.703E+01                                            1013200400239 
  2.267E+01  1.753E+01                                            1013200400240 
  2.284E+01  1.678E+01                                            1013200400241 
  2.288E+01  1.863E+01                                            1013200400242 
  2.296E+01  1.653E+01                                            1013200400243 
  2.306E+01  1.577E+01                                            1013200400244 
  2.309E+01  1.628E+01                                            1013200400245 
  2.327E+01  1.628E+01                                            1013200400246 
  2.337E+01  1.687E+01                                            1013200400247 
  2.338E+01  1.501E+01                                            1013200400248 
  2.364E+01  1.654E+01                                            1013200400249 
  2.369E+01  1.561E+01                                            1013200400250 
  2.379E+01  1.182E+01                                            1013200400251 
  2.396E+01  1.494E+01                                            1013200400252 
  2.396E+01  1.359E+01                                            1013200400253 
  2.410E+01  1.537E+01                                            1013200400254 
  2.421E+01  1.402E+01                                            1013200400255 
  2.425E+01  1.444E+01                                            1013200400256 
  2.439E+01  1.267E+01                                            1013200400257 
  2.458E+01  1.487E+01                                            1013200400258 
  2.483E+01  1.437E+01                                            1013200400259 
  2.485E+01  1.538E+01                                            1013200400260 
  2.499E+01  1.757E+01                                            1013200400261 
  2.514E+01  1.446E+01                                            1013200400262 
  2.518E+01  1.834E+01                                            1013200400263 
  2.534E+01  1.539E+01                                            1013200400264 
  2.543E+01  1.454E+01                                            1013200400265 
  2.547E+01  1.218E+01                                            1013200400266 
  2.561E+01  1.539E+01                                            1013200400267 
  2.580E+01  1.523E+01                                            1013200400268 
  2.593E+01  1.455E+01                                            1013200400269 
  2.609E+01  1.557E+01                                            1013200400270 
  2.630E+01  1.481E+01                                            1013200400271 
  2.642E+01  1.507E+01                                            1013200400272 
  2.642E+01  1.414E+01                                            1013200400273 
  2.661E+01  1.423E+01                                            1013200400274 
  2.678E+01  1.170E+01                                            1013200400275 
  2.680E+01  1.406E+01                                            1013200400276 
  2.694E+01  1.398E+01                                            1013200400277 
  2.708E+01  1.668E+01                                            1013200400278 
  2.713E+01  1.424E+01                                            1013200400279 
  2.731E+01  1.669E+01                                            1013200400280 
  2.746E+01  1.475E+01                                            1013200400281 
  2.748E+01  1.382E+01                                            1013200400282 
  2.763E+01  1.306E+01                                            1013200400283 
  2.780E+01  1.011E+01                                            1013200400284 
  2.781E+01  1.206E+01                                            1013200400285 
  2.800E+01  1.079E+01                                            1013200400286 
  2.820E+01  1.451E+01                                            1013200400287 
  2.839E+01  1.375E+01                                            1013200400288 
  2.854E+01  1.435E+01                                            1013200400289 
  2.858E+01  1.528E+01                                            1013200400290 
  2.872E+01  1.494E+01                                            1013200400291 
  2.889E+01  1.545E+01                                            1013200400292 
  2.910E+01  1.503E+01                                            1013200400293 
  2.928E+01  1.335E+01                                            1013200400294 
  2.930E+01  1.470E+01                                            1013200400295 
  2.970E+01  1.293E+01                                            1013200400296 
  2.989E+01  1.235E+01                                            1013200400297 
  3.009E+01  1.547E+01                                            1013200400298 
  3.011E+01  1.378E+01                                            1013200400299 
  3.027E+01  1.649E+01                                            1013200400300 
  3.050E+01  1.523E+01                                            1013200400301 
  3.067E+01  1.590E+01                                            1013200400302 
  3.092E+01  1.447E+01                                            1013200400303 
  3.096E+01  1.566E+01                                            1013200400304 
  3.113E+01  1.448E+01                                            1013200400305 
  3.129E+01  1.532E+01                                            1013200400306 
  3.133E+01  1.617E+01                                            1013200400307 
  3.156E+01  1.558E+01                                            1013200400308 
  3.179E+01  1.381E+01                                            1013200400309 
  3.202E+01  1.534E+01                                            1013200400310 
  3.220E+01  1.357E+01                                            1013200400311 
  3.245E+01  1.298E+01                                            1013200400312 
  3.266E+01  1.484E+01                                            1013200400313 
  3.268E+01  1.375E+01                                            1013200400314 
  3.293E+01  1.476E+01                                            1013200400315 
  3.316E+01  1.350E+01                                            1013200400316 
  3.336E+01  1.696E+01                                            1013200400317 
  3.361E+01  1.511E+01                                            1013200400318 
  3.384E+01  1.537E+01                                            1013200400319 
  3.403E+01  1.605E+01                                            1013200400320 
  3.411E+01  1.394E+01                                            1013200400321 
  3.432E+01  1.394E+01                                            1013200400322 
  3.455E+01  1.209E+01                                            1013200400323 
  3.459E+01  1.310E+01                                            1013200400324 
  3.477E+01  1.420E+01                                            1013200400325 
  3.504E+01  1.531E+01                                            1013200400326 
  3.508E+01  1.429E+01                                            1013200400327 
  3.531E+01  1.472E+01                                            1013200400328 
  3.552E+01  1.548E+01                                            1013200400329 
  3.583E+01  1.515E+01                                            1013200400330 
  3.608E+01  1.752E+01                                            1013200400331 
  3.609E+01  1.912E+01                                            1013200400332 
  3.632E+01  2.402E+01                                            1013200400333 
  3.642E+01  2.596E+01                                            1013200400334 
  3.658E+01  2.799E+01                                            1013200400335 
  3.662E+01  2.926E+01                                            1013200400336 
  3.672E+01  3.129E+01                                            1013200400337 
  3.682E+01  3.508E+01                                            1013200400338 
  3.697E+01  3.559E+01                                            1013200400339 
  3.710E+01  2.733E+01                                            1013200400340 
  3.719E+01  2.429E+01                                            1013200400341 
  3.725E+01  2.117E+01                                            1013200400342 
  3.725E+01  2.117E+01                                            1013200400343 
  3.740E+01  1.940E+01                                            1013200400344 
  3.755E+01  1.594E+01                                            1013200400345 
  3.763E+01  1.636E+01                                            1013200400346 
  3.776E+01  1.578E+01                                            1013200400347 
  3.782E+01  1.510E+01                                            1013200400348 
  3.794E+01  1.460E+01                                            1013200400349 
  3.822E+01  1.504E+01                                            1013200400350 
  3.848E+01  1.406E+01                                            1013200400351 
  3.884E+01  1.521E+01                                            1013200400352 
  3.915E+01  1.565E+01                                            1013200400353 
  3.941E+01  1.485E+01                                            1013200400354 
  3.972E+01  1.343E+01                                            1013200400355 
  4.008E+01  1.555E+01                                            1013200400356 
  4.038E+01  1.430E+01                                            1013200400357 
  4.038E+01  1.430E+01                                            1013200400358 
  4.069E+01  1.395E+01                                            1013200400359 
  4.100E+01  1.518E+01                                            1013200400360 
  4.122E+01  1.474E+01                                            1013200400361 
  4.166E+01  1.526E+01                                            1013200400362 
  4.197E+01  1.455E+01                                            1013200400363 
  4.228E+01  1.411E+01                                            1013200400364 
  4.263E+01  1.428E+01                                            1013200400365 
  4.294E+01  1.303E+01                                            1013200400366 
  4.334E+01  1.551E+01                                            1013200400367 
  4.369E+01  1.400E+01                                            1013200400368 
  4.400E+01  1.506E+01                                            1013200400369 
  4.435E+01  1.240E+01                                            1013200400370 
  4.462E+01  1.293E+01                                            1013200400371 
  4.510E+01  1.328E+01                                            1013200400372 
  4.546E+01  1.389E+01                                            1013200400373 
  4.586E+01  1.380E+01                                            1013200400374 
  4.625E+01  1.433E+01                                            1013200400375 
  4.665E+01  1.317E+01                                            1013200400376 
  4.706E+01  1.636E+01                                            1013200400377 
  4.740E+01  1.422E+01                                            1013200400378 
  4.780E+01  1.378E+01                                            1013200400379 
  4.825E+01  1.572E+01                                            1013200400380 
  4.865E+01  1.722E+01                                            1013200400381 
  4.905E+01  1.766E+01                                            1013200400382 
  4.948E+01  1.429E+01                                            1013200400383 
  4.992E+01  1.358E+01                                            1013200400384 
  5.027E+01  1.410E+01                                            1013200400385 
  5.076E+01  1.366E+01                                            1013200400386 
  5.120E+01  1.330E+01                                            1013200400387 
  5.168E+01  1.294E+01                                            1013200400388 
  5.208E+01  1.399E+01                                            1013200400389 
  5.253E+01  1.523E+01                                            1013200400390 
  5.302E+01  1.593E+01                                            1013200400391 
  5.350E+01  1.469E+01                                            1013200400392 
  5.403E+01  1.654E+01                                            1013200400393 
  5.451E+01  1.290E+01                                            1013200400394 
  5.499E+01  1.192E+01                                            1013200400395 
  5.548E+01  1.405E+01                                            1013200400396 
  5.602E+01  1.634E+01                                            1013200400397 
  5.645E+01  1.359E+01                                            1013200400398 
  5.703E+01  1.305E+01                                            1013200400399 
  5.759E+01  1.030E+01                                            1013200400400 
  5.813E+01  1.286E+01                                            1013200400401 
  5.862E+01  1.445E+01                                            1013200400402 
  5.919E+01  1.321E+01                                            1013200400403 
  5.986E+01  1.408E+01                                            1013200400404 
  6.040E+01  1.745E+01                                            1013200400405 
  6.092E+01  1.434E+01                                            1013200400406 
  6.149E+01  1.353E+01                                            1013200400407 
  6.216E+01  1.521E+01                                            1013200400408 
  6.273E+01  1.618E+01                                            1013200400409 
  6.335E+01  1.688E+01                                            1013200400410 
  6.393E+01  1.687E+01                                            1013200400411 
  6.458E+01  1.421E+01                                            1013200400412 
  6.516E+01  1.589E+01                                            1013200400413 
  6.583E+01  1.827E+01                                            1013200400414 
  6.637E+01  2.146E+01                                            1013200400415 
  6.664E+01  2.429E+01                                            1013200400416 
  6.703E+01  1.976E+01                                            1013200400417 
  6.740E+01  1.205E+01                                            1013200400418 
  6.811E+01  1.248E+01                                            1013200400419 
  6.886E+01  1.336E+01                                            1013200400420 
  6.962E+01  1.371E+01                                            1013200400421 
  7.032E+01  1.290E+01                                            1013200400422 
  7.098E+01  1.343E+01                                            1013200400423 
  7.174E+01  1.377E+01                                            1013200400424 
  7.244E+01  1.332E+01                                            1013200400425 
  7.324E+01  1.491E+01                                            1013200400426 
  7.403E+01  1.189E+01                                            1013200400427 
  7.474E+01  1.436E+01                                            1013200400428 
  7.567E+01  1.621E+01                                            1013200400429 
  7.610E+01  1.219E+01                                            1013200400430 
  7.655E+01  1.433E+01                                            1013200400431 
  7.699E+01  1.397E+01                                            1013200400432 
  7.734E+01  1.583E+01                                            1013200400433 
  7.774E+01  1.610E+01                                            1013200400434 
  7.818E+01  1.547E+01                                            1013200400435 
  7.857E+01  1.351E+01                                            1013200400436 
  7.902E+01  1.457E+01                                            1013200400437 
  7.937E+01  1.501E+01                                            1013200400438 
  7.990E+01  1.261E+01                                            1013200400439 
  8.034E+01  1.509E+01                                            1013200400440 
  8.074E+01  1.447E+01                                            1013200400441 
  8.127E+01  1.607E+01                                            1013200400442 
  8.167E+01  1.669E+01                                            1013200400443 
  8.216E+01  1.802E+01                                            1013200400444 
  8.260E+01  1.668E+01                                            1013200400445 
  8.303E+01  1.578E+01                                            1013200400446 
  8.356E+01  1.605E+01                                            1013200400447 
  8.396E+01  1.480E+01                                            1013200400448 
  8.450E+01  1.862E+01                                            1013200400449 
  8.493E+01  1.559E+01                                            1013200400450 
  8.540E+01  1.024E+01                                            1013200400451 
  8.589E+01  9.704E+00                                            1013200400452 
  8.638E+01  1.077E+01                                            1013200400453 
  8.687E+01  1.335E+01                                            1013200400454 
  8.731E+01  1.610E+01                                            1013200400455 
  8.785E+01  1.957E+01                                            1013200400456 
  8.839E+01  2.588E+01                                            1013200400457 
  8.893E+01  2.997E+01                                            1013200400458 
  8.941E+01  2.676E+01                                            1013200400459 
  8.996E+01  1.679E+01                                            1013200400460 
  9.047E+01  8.684E+00                                            1013200400461 
  9.091E+01  6.900E+00                                            1013200400462 
  9.154E+01  1.099E+01                                            1013200400463 
  9.213E+01  1.757E+01                                            1013200400464 
  9.261E+01  1.757E+01                                            1013200400465 
  9.314E+01  1.801E+01                                            1013200400466 
  9.376E+01  1.738E+01                                            1013200400467 
  9.424E+01  1.648E+01                                            1013200400468 
  9.482E+01  1.817E+01                                            1013200400469 
  9.539E+01  1.808E+01                                            1013200400470 
  9.596E+01  1.745E+01                                            1013200400471 
  9.659E+01  1.869E+01                                            1013200400472 
  9.711E+01  1.521E+01                                            1013200400473 
  9.778E+01  1.903E+01                                            1013200400474 
  9.827E+01  2.063E+01                                            1013200400475 
  9.888E+01  1.894E+01                                            1013200400476 
  9.949E+01  1.742E+01                                            1013200400477 
  1.001E+02  1.447E+01                                            1013200400478 
  1.007E+02  1.474E+01                                            1013200400479 
  1.014E+02  1.544E+01                                            1013200400480 
  1.019E+02  1.650E+01                                            1013200400481 
  1.026E+02  2.095E+01                                            1013200400482 
  1.033E+02  2.157E+01                                            1013200400483 
  1.039E+02  2.210E+01                                            1013200400484 
  1.046E+02  1.817E+01                                            1013200400485 
  1.052E+02  1.754E+01                                            1013200400486 
  1.058E+02  1.576E+01                                            1013200400487 
  1.065E+02  1.442E+01                                            1013200400488 
  1.072E+02  1.459E+01                                            1013200400489 
  1.079E+02  1.396E+01                                            1013200400490 
  1.086E+02  1.484E+01                                            1013200400491 
  1.093E+02  1.644E+01                                            1013200400492 
  1.099E+02  1.528E+01                                            1013200400493 
  1.106E+02  1.474E+01                                            1013200400494 
  1.112E+02  1.144E+01                                            1013200400495 
  1.118E+02  1.321E+01                                            1013200400496 
  1.126E+02  1.801E+01                                            1013200400497 
  1.133E+02  1.551E+01                                            1013200400498 
  1.140E+02  1.586E+01                                            1013200400499 
  1.143E+02  1.531E+01                                            1013200400500 
  1.152E+02  1.584E+01                                            1013200400501 
  1.160E+02  1.467E+01                                            1013200400502 
  1.168E+02  1.663E+01                                            1013200400503 
  1.175E+02  1.994E+01                                            1013200400504 
  1.185E+02  2.181E+01                                            1013200400505 
  1.192E+02  2.548E+01                                            1013200400506 
  1.199E+02  2.269E+01                                            1013200400507 
  1.206E+02  1.337E+01                                            1013200400508 
  1.221E+02  1.049E+01                                            1013200400509 
  1.238E+02  1.594E+01                                            1013200400510 
  1.247E+02  1.602E+01                                            1013200400511 
  1.257E+02  1.494E+01                                            1013200400512 
  1.267E+02  1.457E+01                                            1013200400513 
  1.276E+02  1.654E+01                                            1013200400514 
  1.284E+02  1.662E+01                                            1013200400515 
  1.293E+02  1.356E+01                                            1013200400516 
  1.301E+02  1.615E+01                                            1013200400517 
  1.308E+02  1.570E+01                                            1013200400518 
  1.320E+02  1.524E+01                                            1013200400519 
  1.328E+02  1.980E+01                                            1013200400520 
  1.338E+02  1.908E+01                                            1013200400521 
  1.347E+02  1.531E+01                                            1013200400522 
  1.356E+02  1.512E+01                                            1013200400523 
  1.366E+02  1.502E+01                                            1013200400524 
  1.375E+02  1.573E+01                                            1013200400525 
  1.386E+02  1.671E+01                                            1013200400526 
  1.396E+02  1.643E+01                                            1013200400527 
  1.406E+02  1.696E+01                                            1013200400528 
  1.417E+02  1.650E+01                                            1013200400529 
  1.425E+02  1.551E+01                                            1013200400530 
  1.437E+02  1.478E+01                                            1013200400531 
  1.448E+02  1.656E+01                                            1013200400532 
  1.458E+02  1.530E+01                                            1013200400533 
  1.469E+02  1.556E+01                                            1013200400534 
  1.482E+02  1.814E+01                                            1013200400535 
  1.492E+02  1.697E+01                                            1013200400536 
  1.505E+02  1.436E+01                                            1013200400537 
  1.515E+02  1.471E+01                                            1013200400538 
  1.526E+02  1.282E+01                                            1013200400539 
  1.537E+02  1.263E+01                                            1013200400540 
  1.548E+02  1.602E+01                                            1013200400541 
  1.559E+02  1.673E+01                                            1013200400542 
  1.570E+02  1.627E+01                                            1013200400543 
  1.584E+02  1.510E+01                                            1013200400544 
  1.598E+02  1.356E+01                                            1013200400545 
  1.610E+02  1.194E+01                                            1013200400546 
  1.623E+02  1.605E+01                                            1013200400547 
  1.637E+02  1.818E+01                                            1013200400548 
  1.649E+02  1.602E+01                                            1013200400549 
  1.662E+02  1.431E+01                                            1013200400550 
  1.674E+02  1.116E+01                                            1013200400551 
  1.688E+02  1.205E+01                                            1013200400552 
  1.700E+02  1.329E+01                                            1013200400553 
  1.715E+02  1.462E+01                                            1013200400554 
  1.729E+02  1.398E+01                                            1013200400555 
  1.739E+02  1.585E+01                                            1013200400556 
  1.748E+02  1.755E+01                                            1013200400557 
  1.761E+02  1.628E+01                                            1013200400558 
  1.775E+02  1.546E+01                                            1013200400559 
  1.789E+02  1.617E+01                                            1013200400560 
  1.803E+02  1.526E+01                                            1013200400561 
  1.824E+02  1.542E+01                                            1013200400562 
  1.827E+02  1.542E+01                                            1013200400563 
  1.845E+02  1.629E+01                                            1013200400564 
  1.859E+02  1.888E+01                                            1013200400565 
  1.876E+02  1.931E+01                                            1013200400566 
  1.892E+02  2.118E+01                                            1013200400567 
  1.907E+02  2.322E+01                                            1013200400568 
  1.923E+02  1.891E+01                                            1013200400569 
ENDDATA            556          0                                 1013200400570 
ENDSUBENT          569          0                                 1013200499999 
SUBENT        10132005   20130503                             13911013200500001 
BIB                  3          9                                 1013200500002 
REACTION   (92-U-235(N,EL)92-U-235,,SIG,,RAW)                     1013200500003 
COMMENT    Compiler comment: Poor resolution data measured to     1013200500004 
           determine spins. Cross section curves are              1013200500005 
           contaminated with resonance peaks from 236U            1013200500006 
           at 5 eV and 238U at 6, 21, 37, 66,                     1013200500007 
           100 and 120 eV. Consequently, it is rather RAW than    1013200500008 
           final data. Combined 4 spectra with scale change into  1013200500009 
           single spectrum.                                       1013200500010 
STATUS     (CURVE) Fig.4, page 45.                                1013200500011 
ENDBIB               9          0                                 1013200500012 
NOCOMMON             0          0                                 1013200500013 
DATA                 2        348                                 1013200500014 
EN         DATA                                                   1013200500015 
EV         B                                                      1013200500016 
  9.197E-01  1.213E+01                                            1013200500017 
  1.047E+00  1.285E+01                                            1013200500018 
  1.138E+00  1.233E+01                                            1013200500019 
  1.138E+00  1.361E+01                                            1013200500020 
  1.193E+00  1.306E+01                                            1013200500021 
  1.302E+00  1.295E+01                                            1013200500022 
  1.375E+00  1.327E+01                                            1013200500023 
  1.429E+00  1.295E+01                                            1013200500024 
  1.520E+00  1.263E+01                                            1013200500025 
  1.593E+00  1.192E+01                                            1013200500026 
  1.648E+00  1.273E+01                                            1013200500027 
  1.702E+00  1.305E+01                                            1013200500028 
  1.757E+00  1.252E+01                                            1013200500029 
  1.829E+00  1.202E+01                                            1013200500030 
  1.920E+00  1.212E+01                                            1013200500031 
  2.011E+00  1.242E+01                                            1013200500032 
  2.157E+00  1.294E+01                                            1013200500033 
  2.230E+00  1.262E+01                                            1013200500034 
  2.339E+00  1.273E+01                                            1013200500035 
  2.411E+00  1.211E+01                                            1013200500036 
  2.557E+00  1.201E+01                                            1013200500037 
  2.666E+00  1.221E+01                                            1013200500038 
  2.739E+00  1.162E+01                                            1013200500039 
  2.830E+00  1.221E+01                                            1013200500040 
  2.921E+00  1.162E+01                                            1013200500041 
  3.030E+00  1.181E+01                                            1013200500042 
  3.157E+00  1.191E+01                                            1013200500043 
  3.212E+00  1.133E+01                                            1013200500044 
  3.339E+00  1.096E+01                                            1013200500045 
  3.394E+00  1.261E+01                                            1013200500046 
  3.521E+00  1.240E+01                                            1013200500047 
  3.667E+00  1.250E+01                                            1013200500048 
  3.721E+00  1.133E+01                                            1013200500049 
  3.830E+00  1.151E+01                                            1013200500050 
  3.903E+00  1.114E+01                                            1013200500051 
  3.940E+00  1.180E+01                                            1013200500052 
  3.976E+00  1.230E+01                                            1013200500053 
  4.067E+00  1.220E+01                                            1013200500054 
  4.158E+00  1.190E+01                                            1013200500055 
  4.194E+00  1.105E+01                                            1013200500056 
  4.213E+00  1.335E+01                                            1013200500057 
  4.267E+00  1.060E+01                                            1013200500058 
  4.322E+00  1.180E+01                                            1013200500059 
  4.376E+00  1.123E+01                                            1013200500060 
  4.394E+00  1.086E+01                                            1013200500061 
  4.449E+00  1.170E+01                                            1013200500062 
  4.503E+00  1.095E+01                                            1013200500063 
  4.522E+00  1.160E+01                                            1013200500064 
  4.576E+00  1.009E+01                                            1013200500065 
  4.630E+00  1.068E+01                                            1013200500066 
  4.631E+00  1.141E+01                                            1013200500067 
  4.704E+00  1.209E+01                                            1013200500068 
  4.777E+00  1.291E+01                                            1013200500069 
  4.831E+00  1.141E+01                                            1013200500070 
  4.849E+00  1.219E+01                                            1013200500071 
  4.922E+00  1.291E+01                                            1013200500072 
  4.941E+00  1.379E+01                                            1013200500073 
  5.032E+00  1.356E+01                                            1013200500074 
  5.033E+00  1.708E+01                                            1013200500075 
  5.070E+00  2.205E+01                                            1013200500076 
  5.089E+00  2.823E+01                                            1013200500077 
  5.108E+00  3.066E+01                                            1013200500078 
  5.126E+00  3.412E+01                                            1013200500079 
  5.162E+00  2.557E+01                                            1013200500080 
  5.215E+00  2.116E+01                                            1013200500081 
  5.232E+00  1.586E+01                                            1013200500082 
  5.268E+00  1.270E+01                                            1013200500083 
  5.268E+00  1.448E+01                                            1013200500084 
  5.341E+00  1.218E+01                                            1013200500085 
  5.341E+00  1.345E+01                                            1013200500086 
  5.395E+00  1.301E+01                                            1013200500087 
  5.486E+00  1.188E+01                                            1013200500088 
  5.559E+00  1.312E+01                                            1013200500089 
  5.577E+00  1.140E+01                                            1013200500090 
  5.577E+00  1.238E+01                                            1013200500091 
  5.686E+00  1.131E+01                                            1013200500092 
  5.704E+00  1.068E+01                                            1013200500093 
  5.795E+00  1.008E+01                                            1013200500094 
  5.832E+00  1.178E+01                                            1013200500095 
  5.849E+00  1.085E+01                                            1013200500096 
  5.958E+00  1.033E+01                                            1013200500097 
  5.994E+00  8.758E+00                                            1013200500098 
  6.013E+00  9.588E+00                                            1013200500099 
  6.085E+00  8.685E+00                                            1013200500100 
  6.085E+00  9.431E+00                                            1013200500101 
  6.141E+00  1.076E+01                                            1013200500102 
  6.213E+00  9.908E+00                                            1013200500103 
  6.232E+00  1.140E+01                                            1013200500104 
  6.269E+00  1.412E+01                                            1013200500105 
  6.323E+00  1.355E+01                                            1013200500106 
  6.361E+00  1.624E+01                                            1013200500107 
  6.397E+00  1.483E+01                                            1013200500108 
  6.432E+00  1.187E+01                                            1013200500109 
  6.506E+00  1.459E+01                                            1013200500110 
  6.507E+00  1.822E+01                                            1013200500111 
  6.562E+00  2.239E+01                                            1013200500112 
  6.599E+00  2.728E+01                                            1013200500113 
  6.669E+00  1.459E+01                                            1013200500114 
  6.671E+00  2.239E+01                                            1013200500115 
  6.797E+00  1.459E+01                                            1013200500116 
  6.832E+00  1.121E+01                                            1013200500117 
  6.832E+00  1.217E+01                                            1013200500118 
  6.851E+00  1.332E+01                                            1013200500119 
  6.905E+00  1.168E+01                                            1013200500120 
  6.996E+00  1.247E+01                                            1013200500121 
  7.106E+00  1.377E+01                                            1013200500122 
  7.142E+00  1.299E+01                                            1013200500123 
  7.196E+00  1.226E+01                                            1013200500124 
  7.287E+00  1.139E+01                                            1013200500125 
  7.396E+00  1.196E+01                                            1013200500126 
  7.505E+00  1.216E+01                                            1013200500127 
  7.596E+00  1.138E+01                                            1013200500128 
  7.687E+00  1.216E+01                                            1013200500129 
  7.705E+00  1.092E+01                                            1013200500130 
  7.760E+00  1.186E+01                                            1013200500131 
  7.778E+00  1.014E+01                                            1013200500132 
  7.887E+00  9.653E+00                                            1013200500133 
  7.905E+00  1.014E+01                                            1013200500134 
  8.014E+00  9.573E+00                                            1013200500135 
  8.105E+00  9.572E+00                                            1013200500136 
  8.178E+00  9.571E+00                                            1013200500137 
  8.323E+00  9.570E+00                                            1013200500138 
  8.377E+00  8.319E+00                                            1013200500139 
  8.469E+00  9.335E+00                                            1013200500140 
  8.505E+00  1.039E+01                                            1013200500141 
  8.542E+00  1.166E+01                                            1013200500142 
  8.596E+00  8.739E+00                                            1013200500143 
  8.725E+00  1.480E+01                                            1013200500144 
  8.781E+00  1.775E+01                                            1013200500145 
  8.854E+00  2.110E+01                                            1013200500146 
  8.870E+00  1.375E+01                                            1013200500147 
  8.962E+00  1.444E+01                                            1013200500148 
  9.053E+00  1.542E+01                                            1013200500149 
  9.071E+00  1.374E+01                                            1013200500150 
  9.216E+00  1.374E+01                                            1013200500151 
  9.361E+00  1.297E+01                                            1013200500152 
  9.543E+00  1.286E+01                                            1013200500153 
  9.671E+00  1.340E+01                                            1013200500154 
  9.779E+00  1.100E+01                                            1013200500155 
  9.907E+00  1.136E+01                                            1013200500156 
  9.961E+00  1.184E+01                                            1013200500157 
  1.009E+01  1.244E+01                                            1013200500158 
  1.022E+01  1.203E+01                                            1013200500159 
  1.042E+01  1.174E+01                                            1013200500160 
  1.056E+01  1.126E+01                                            1013200500161 
  1.073E+01  1.063E+01                                            1013200500162 
  1.083E+01  1.173E+01                                            1013200500163 
  1.089E+01  1.063E+01                                            1013200500164 
  1.096E+01  1.223E+01                                            1013200500165 
  1.098E+01  8.722E+00                                            1013200500166 
  1.102E+01  1.003E+01                                            1013200500167 
  1.109E+01  9.163E+00                                            1013200500168 
  1.118E+01  9.548E+00                                            1013200500169 
  1.127E+01  8.299E+00                                            1013200500170 
  1.131E+01  9.948E+00                                            1013200500171 
  1.140E+01  8.647E+00                                            1013200500172 
  1.144E+01  1.327E+01                                            1013200500173 
  1.147E+01  1.054E+01                                            1013200500174 
  1.153E+01  9.312E+00                                            1013200500175 
  1.156E+01  1.316E+01                                            1013200500176 
  1.160E+01  1.699E+01                                            1013200500177 
  1.169E+01  1.489E+01                                            1013200500178 
  1.173E+01  1.590E+01                                            1013200500179 
  1.176E+01  1.273E+01                                            1013200500180 
  1.180E+01  1.192E+01                                            1013200500181 
  1.187E+01  1.153E+01                                            1013200500182 
  1.196E+01  1.107E+01                                            1013200500183 
  1.202E+01  1.019E+01                                            1013200500184 
  1.205E+01  1.172E+01                                            1013200500185 
  1.209E+01  1.262E+01                                            1013200500186 
  1.218E+01  1.153E+01                                            1013200500187 
  1.222E+01  1.741E+01                                            1013200500188 
  1.226E+01  2.564E+01                                            1013200500189 
  1.231E+01  2.228E+01                                            1013200500190 
  1.235E+01  2.322E+01                                            1013200500191 
  1.244E+01  2.440E+01                                            1013200500192 
  1.247E+01  1.629E+01                                            1013200500193 
  1.255E+01  1.755E+01                                            1013200500194 
  1.262E+01  1.889E+01                                            1013200500195 
  1.267E+01  1.550E+01                                            1013200500196 
  1.271E+01  1.382E+01                                            1013200500197 
  1.276E+01  1.044E+01                                            1013200500198 
  1.282E+01  2.018E+01                                            1013200500199 
  1.284E+01  1.370E+01                                            1013200500200 
  1.287E+01  1.124E+01                                            1013200500201 
  1.300E+01  1.359E+01                                            1013200500202 
  1.307E+01  1.304E+01                                            1013200500203 
  1.320E+01  1.336E+01                                            1013200500204 
  1.331E+01  1.035E+01                                            1013200500205 
  1.345E+01  1.336E+01                                            1013200500206 
  1.356E+01  1.161E+01                                            1013200500207 
  1.371E+01  1.250E+01                                            1013200500208 
  1.378E+01  1.096E+01                                            1013200500209 
  1.393E+01  1.190E+01                                            1013200500210 
  1.407E+01  1.292E+01                                            1013200500211 
  1.418E+01  1.346E+01                                            1013200500212 
  1.435E+01  1.357E+01                                            1013200500213 
  1.446E+01  1.561E+01                                            1013200500214 
  1.460E+01  1.239E+01                                            1013200500215 
  1.475E+01  1.189E+01                                            1013200500216 
  1.487E+01  1.160E+01                                            1013200500217 
  1.504E+01  1.086E+01                                            1013200500218 
  1.518E+01  1.179E+01                                            1013200500219 
  1.529E+01  1.131E+01                                            1013200500220 
  1.546E+01  1.094E+01                                            1013200500221 
  1.560E+01  1.122E+01                                            1013200500222 
  1.580E+01  1.150E+01                                            1013200500223 
  1.593E+01  1.248E+01                                            1013200500224 
  1.611E+01  1.228E+01                                            1013200500225 
  1.626E+01  1.188E+01                                            1013200500226 
  1.640E+01  1.187E+01                                            1013200500227 
  1.655E+01  1.139E+01                                            1013200500228 
  1.673E+01  1.158E+01                                            1013200500229 
  1.689E+01  1.084E+01                                            1013200500230 
  1.709E+01  9.983E+00                                            1013200500231 
  1.722E+01  9.738E+00                                            1013200500232 
  1.742E+01  1.023E+01                                            1013200500233 
  1.760E+01  1.057E+01                                            1013200500234 
  1.782E+01  9.977E+00                                            1013200500235 
  1.804E+01  9.416E+00                                            1013200500236 
  1.818E+01  1.022E+01                                            1013200500237 
  1.835E+01  8.388E+00                                            1013200500238 
  1.856E+01  7.852E+00                                            1013200500239 
  1.906E+01  1.047E+01                                            1013200500240 
  1.926E+01  1.926E+01                                            1013200500241 
  1.946E+01  1.620E+01                                            1013200500242 
  1.964E+01  1.408E+01                                            1013200500243 
  1.991E+01  1.362E+01                                            1013200500244 
  2.011E+01  1.265E+01                                            1013200500245 
  2.033E+01  1.516E+01                                            1013200500246 
  2.057E+01  3.052E+01                                            1013200500247 
  2.081E+01  6.248E+01                                            1013200500248 
  2.103E+01  5.001E+01                                            1013200500249 
  2.119E+01  2.442E+01                                            1013200500250 
  2.130E+01  1.861E+01                                            1013200500251 
  2.141E+01  1.771E+01                                            1013200500252 
  2.153E+01  1.349E+01                                            1013200500253 
  2.177E+01  1.222E+01                                            1013200500254 
  2.255E+01  1.181E+01                                            1013200500255 
  2.284E+01  1.143E+01                                            1013200500256 
  2.310E+01  1.070E+01                                            1013200500257 
  2.333E+01  1.261E+01                                            1013200500258 
  2.361E+01  1.487E+01                                            1013200500259 
  2.388E+01  1.314E+01                                            1013200500260 
  2.424E+01  1.574E+01                                            1013200500261 
  2.453E+01  1.461E+01                                            1013200500262 
  2.481E+01  1.313E+01                                            1013200500263 
  2.512E+01  1.291E+01                                            1013200500264 
  2.546E+01  1.218E+01                                            1013200500265 
  2.577E+01  1.178E+01                                            1013200500266 
  2.608E+01  1.103E+01                                            1013200500267 
  2.643E+01  9.906E+00                                            1013200500268 
  2.675E+01  9.904E+00                                            1013200500269 
  2.699E+01  1.300E+01                                            1013200500270 
  2.746E+01  1.257E+01                                            1013200500271 
  2.781E+01  1.101E+01                                            1013200500272 
  2.812E+01  1.074E+01                                            1013200500273 
  2.855E+01  1.065E+01                                            1013200500274 
  2.892E+01  1.056E+01                                            1013200500275 
  2.928E+01  1.064E+01                                            1013200500276 
  2.968E+01  1.082E+01                                            1013200500277 
  3.009E+01  1.021E+01                                            1013200500278 
  3.045E+01  1.072E+01                                            1013200500279 
  3.096E+01  1.072E+01                                            1013200500280 
  3.128E+01  1.203E+01                                            1013200500281 
  3.168E+01  1.072E+01                                            1013200500282 
  3.226E+01  1.012E+01                                            1013200500283 
  3.258E+01  1.126E+01                                            1013200500284 
  3.273E+01  9.705E+00                                            1013200500285 
  3.312E+01  1.135E+01                                            1013200500286 
  3.323E+01  6.697E+00                                            1013200500287 
  3.348E+01  9.702E+00                                            1013200500288 
  3.399E+01  1.273E+01                                            1013200500289 
  3.450E+01  1.371E+01                                            1013200500290 
  3.497E+01  1.905E+01                                            1013200500291 
  3.548E+01  2.648E+01                                            1013200500292 
  3.613E+01  4.200E+01                                            1013200500293 
  3.711E+01  4.634E+01                                            1013200500294 
  3.739E+01  2.263E+01                                            1013200500295 
  3.771E+01  1.682E+01                                            1013200500296 
  3.825E+01  1.324E+01                                            1013200500297 
  3.887E+01  1.346E+01                                            1013200500298 
  3.955E+01  1.723E+01                                            1013200500299 
  4.006E+01  1.586E+01                                            1013200500300 
  4.063E+01  1.485E+01                                            1013200500301 
  4.118E+01  1.290E+01                                            1013200500302 
  4.193E+01  1.178E+01                                            1013200500303 
  4.262E+01  1.067E+01                                            1013200500304 
  4.331E+01  1.268E+01                                            1013200500305 
  4.403E+01  1.332E+01                                            1013200500306 
  4.475E+01  1.187E+01                                            1013200500307 
  4.560E+01  1.038E+01                                            1013200500308 
  4.629E+01  1.205E+01                                            1013200500309 
  4.709E+01  1.186E+01                                            1013200500310 
  4.785E+01  1.247E+01                                            1013200500311 
  4.865E+01  1.258E+01                                            1013200500312 
  4.956E+01  9.752E+00                                            1013200500313 
  5.029E+01  1.095E+01                                            1013200500314 
  5.127E+01  1.325E+01                                            1013200500315 
  5.218E+01  1.171E+01                                            1013200500316 
  5.316E+01  1.212E+01                                            1013200500317 
  5.411E+01  9.788E+00                                            1013200500318 
  5.505E+01  1.213E+01                                            1013200500319 
  5.606E+01  1.731E+01                                            1013200500320 
  5.712E+01  1.676E+01                                            1013200500321 
  5.825E+01  1.458E+01                                            1013200500322 
  5.930E+01  1.389E+01                                            1013200500323 
  6.061E+01  1.291E+01                                            1013200500324 
  6.156E+01  1.261E+01                                            1013200500325 
  6.280E+01  1.191E+01                                            1013200500326 
  6.403E+01  1.685E+01                                            1013200500327 
  6.657E+01  2.387E+01                                            1013200500328 
  6.789E+01  1.288E+01                                            1013200500329 
  6.891E+01  1.049E+01                                            1013200500330 
  7.083E+01  1.199E+01                                            1013200500331 
  7.232E+01  1.358E+01                                            1013200500332 
  7.381E+01  1.263E+01                                            1013200500333 
  7.545E+01  1.234E+01                                            1013200500334 
  7.698E+01  1.266E+01                                            1013200500335 
  7.876E+01  1.067E+01                                            1013200500336 
  8.047E+01  1.059E+01                                            1013200500337 
  8.229E+01  1.381E+01                                            1013200500338 
  8.418E+01  1.429E+01                                            1013200500339 
  8.607E+01  1.318E+01                                            1013200500340 
  8.807E+01  1.434E+01                                            1013200500341 
  9.017E+01  1.390E+01                                            1013200500342 
  9.225E+01  1.681E+01                                            1013200500343 
  9.442E+01  1.668E+01                                            1013200500344 
  9.678E+01  1.463E+01                                            1013200500345 
  9.904E+01  1.630E+01                                            1013200500346 
  1.016E+02  3.340E+01                                            1013200500347 
  1.040E+02  2.743E+01                                            1013200500348 
  1.066E+02  1.661E+01                                            1013200500349 
  1.095E+02  1.676E+01                                            1013200500350 
  1.122E+02  1.637E+01                                            1013200500351 
  1.153E+02  1.869E+01                                            1013200500352 
  1.185E+02  2.032E+01                                            1013200500353 
  1.215E+02  1.655E+01                                            1013200500354 
  1.251E+02  1.441E+01                                            1013200500355 
  1.285E+02  1.306E+01                                            1013200500356 
  1.320E+02  1.444E+01                                            1013200500357 
  1.360E+02  1.747E+01                                            1013200500358 
  1.399E+02  1.508E+01                                            1013200500359 
  1.441E+02  1.403E+01                                            1013200500360 
  1.482E+02  1.602E+01                                            1013200500361 
  1.528E+02  1.454E+01                                            1013200500362 
  1.576E+02  1.468E+01                                            1013200500363 
  1.624E+02  1.623E+01                                            1013200500364 
ENDDATA            350          0                                 1013200500365 
ENDSUBENT          364          0                                 1013200599999 
SUBENT        10132006   20130503                             13911013200600001 
BIB                  3          8                                 1013200600002 
REACTION   (94-PU-239(N,EL)94-PU-239,,SIG,,RAW)                   1013200600003 
COMMENT    Compiler comment: Poor resolution data measured to     1013200600004 
           determine spins.                                       1013200600005 
           Cross section curves are contaminated with resonance   1013200600006 
           peaks from 240Pu at 39 and 67 eV. Consequently, it is  1013200600007 
           rather RAW than final data. Combined 4 spectra with    1013200600008 
           scale change  in to single spectrum.                   1013200600009 
STATUS     (CURVE) Fig.5, page 46.                                1013200600010 
ENDBIB               8          0                                 1013200600011 
NOCOMMON             0          0                                 1013200600012 
DATA                 2        619                                 1013200600013 
EN         DATA                                                   1013200600014 
EV         B                                                      1013200600015 
  2.579E+00  1.420E+01                                            1013200600016 
  2.779E+00  1.420E+01                                            1013200600017 
  2.899E+00  1.258E+01                                            1013200600018 
  2.979E+00  1.398E+01                                            1013200600019 
  3.178E+00  1.316E+01                                            1013200600020 
  3.418E+00  1.277E+01                                            1013200600021 
  3.578E+00  1.297E+01                                            1013200600022 
  3.777E+00  1.316E+01                                            1013200600023 
  3.897E+00  1.398E+01                                            1013200600024 
  4.057E+00  1.221E+01                                            1013200600025 
  4.217E+00  1.316E+01                                            1013200600026 
  4.336E+00  1.336E+01                                            1013200600027 
  4.576E+00  1.316E+01                                            1013200600028 
  4.616E+00  1.221E+01                                            1013200600029 
  4.816E+00  1.221E+01                                            1013200600030 
  4.895E+00  1.297E+01                                            1013200600031 
  5.055E+00  1.221E+01                                            1013200600032 
  5.215E+00  1.336E+01                                            1013200600033 
  5.295E+00  1.202E+01                                            1013200600034 
  5.414E+00  1.166E+01                                            1013200600035 
  5.574E+00  1.316E+01                                            1013200600036 
  5.654E+00  1.184E+01                                            1013200600037 
  5.734E+00  1.277E+01                                            1013200600038 
  5.854E+00  1.239E+01                                            1013200600039 
  6.013E+00  1.184E+01                                            1013200600040 
  6.133E+00  1.297E+01                                            1013200600041 
  6.293E+00  1.277E+01                                            1013200600042 
  6.413E+00  1.221E+01                                            1013200600043 
  6.612E+00  1.221E+01                                            1013200600044 
  6.812E+00  1.184E+01                                            1013200600045 
  6.972E+00  1.115E+01                                            1013200600046 
  7.132E+00  1.149E+01                                            1013200600047 
  7.211E+00  1.258E+01                                            1013200600048 
  7.291E+00  1.115E+01                                            1013200600049 
  7.451E+00  1.115E+01                                            1013200600050 
  7.611E+00  1.049E+01                                            1013200600051 
  7.691E+00  1.221E+01                                            1013200600052 
  7.770E+00  1.166E+01                                            1013200600053 
  7.970E+00  1.018E+01                                            1013200600054 
  8.050E+00  1.082E+01                                            1013200600055 
  8.170E+00  8.241E+00                                            1013200600056 
  8.329E+00  1.003E+01                                            1013200600057 
  8.449E+00  8.117E+00                                            1013200600058 
  8.609E+00  6.979E+00                                            1013200600059 
  8.649E+00  1.003E+01                                            1013200600060 
  8.849E+00  1.357E+01                                            1013200600061 
  8.968E+00  1.702E+01                                            1013200600062 
  9.008E+00  2.677E+01                                            1013200600063 
  9.168E+00  2.931E+01                                            1013200600064 
  9.288E+00  2.372E+01                                            1013200600065 
  9.408E+00  1.781E+01                                            1013200600066 
  9.567E+00  1.277E+01                                            1013200600067 
  9.607E+00  1.098E+01                                            1013200600068 
  9.847E+00  1.115E+01                                            1013200600069 
  1.009E+01  1.202E+01                                            1013200600070 
  1.033E+01  1.485E+01                                            1013200600071 
  1.037E+01  1.316E+01                                            1013200600072 
  1.053E+01  1.336E+01                                            1013200600073 
  1.061E+01  1.149E+01                                            1013200600074 
  1.077E+01  1.132E+01                                            1013200600075 
  1.085E+01  1.018E+01                                            1013200600076 
  1.108E+01  1.034E+01                                            1013200600077 
  1.120E+01  9.731E+00                                            1013200600078 
  1.136E+01  9.441E+00                                            1013200600079 
  1.152E+01  9.879E+00                                            1013200600080 
  1.160E+01  8.887E+00                                            1013200600081 
  1.180E+01  9.299E+00                                            1013200600082 
  1.184E+01  1.065E+01                                            1013200600083 
  1.188E+01  1.003E+01                                            1013200600084 
  1.200E+01  9.441E+00                                            1013200600085 
  1.212E+01  7.876E+00                                            1013200600086 
  1.228E+01  6.670E+00                                            1013200600087 
  1.232E+01  6.375E+00                                            1013200600088 
  1.240E+01  1.098E+01                                            1013200600089 
  1.248E+01  8.887E+00                                            1013200600090 
  1.252E+01  1.420E+01                                            1013200600091 
  1.272E+01  1.602E+01                                            1013200600092 
  1.288E+01  2.372E+01                                            1013200600093 
  1.300E+01  2.844E+01                                            1013200600094 
  1.312E+01  2.233E+01                                            1013200600095 
  1.316E+01  1.920E+01                                            1013200600096 
  1.328E+01  1.781E+01                                            1013200600097 
  1.332E+01  1.277E+01                                            1013200600098 
  1.340E+01  1.065E+01                                            1013200600099 
  1.344E+01  1.728E+01                                            1013200600100 
  1.352E+01  6.472E+00                                            1013200600101 
  1.364E+01  9.160E+00                                            1013200600102 
  1.368E+01  1.398E+01                                            1013200600103 
  1.384E+01  1.863E+01                                            1013200600104 
  1.392E+01  2.409E+01                                            1013200600105 
  1.408E+01  3.067E+01                                            1013200600106 
  1.416E+01  2.718E+01                                            1013200600107 
  1.424E+01  2.071E+01                                            1013200600108 
  1.428E+01  2.445E+01                                            1013200600109 
  1.444E+01  1.676E+01                                            1013200600110 
  1.460E+01  1.602E+01                                            1013200600111 
  1.476E+01  1.420E+01                                            1013200600112 
  1.496E+01  1.554E+01                                            1013200600113 
  1.504E+01  1.420E+01                                            1013200600114 
  1.528E+01  1.420E+01                                            1013200600115 
  1.536E+01  1.221E+01                                            1013200600116 
  1.560E+01  1.132E+01                                            1013200600117 
  1.580E+01  1.316E+01                                            1013200600118 
  1.588E+01  1.221E+01                                            1013200600119 
  1.596E+01  1.098E+01                                            1013200600120 
  1.612E+01  1.115E+01                                            1013200600121 
  1.616E+01  1.221E+01                                            1013200600122 
  1.632E+01  9.731E+00                                            1013200600123 
  1.652E+01  9.585E+00                                            1013200600124 
  1.664E+01  8.366E+00                                            1013200600125 
  1.679E+01  9.731E+00                                            1013200600126 
  1.691E+01  1.485E+01                                            1013200600127 
  1.699E+01  2.134E+01                                            1013200600128 
  1.703E+01  1.602E+01                                            1013200600129 
  1.711E+01  2.677E+01                                            1013200600130 
  1.719E+01  2.445E+01                                            1013200600131 
  1.723E+01  2.931E+01                                            1013200600132 
  1.727E+01  4.542E+01                                            1013200600133 
  1.743E+01  4.212E+01                                            1013200600134 
  1.747E+01  3.461E+01                                            1013200600135 
  1.759E+01  2.040E+01                                            1013200600136 
  1.763E+01  2.233E+01                                            1013200600137 
  1.783E+01  2.200E+01                                            1013200600138 
  1.803E+01  1.863E+01                                            1013200600139 
  1.815E+01  1.702E+01                                            1013200600140 
  1.823E+01  1.891E+01                                            1013200600141 
  1.839E+01  1.531E+01                                            1013200600142 
  1.855E+01  1.398E+01                                            1013200600143 
  1.887E+01  1.420E+01                                            1013200600144 
  1.903E+01  1.398E+01                                            1013200600145 
  1.907E+01  1.508E+01                                            1013200600146 
  1.935E+01  1.485E+01                                            1013200600147 
  1.947E+01  1.277E+01                                            1013200600148 
  1.959E+01  1.297E+01                                            1013200600149 
  1.979E+01  1.239E+01                                            1013200600150 
  1.991E+01  1.202E+01                                            1013200600151 
  2.003E+01  1.258E+01                                            1013200600152 
  2.027E+01  1.398E+01                                            1013200600153 
  2.031E+01  1.166E+01                                            1013200600154 
  2.043E+01  1.781E+01                                            1013200600155 
  2.067E+01  2.372E+01                                            1013200600156 
  2.087E+01  2.718E+01                                            1013200600157 
  2.095E+01  3.021E+01                                            1013200600158 
  2.107E+01  3.461E+01                                            1013200600159 
  2.119E+01  3.021E+01                                            1013200600160 
  2.139E+01  2.718E+01                                            1013200600161 
  2.143E+01  2.134E+01                                            1013200600162 
  2.163E+01  2.520E+01                                            1013200600163 
  2.171E+01  2.009E+01                                            1013200600164 
  2.175E+01  1.728E+01                                            1013200600165 
  2.207E+01  1.602E+01                                            1013200600166 
  2.231E+01  1.463E+01                                            1013200600167 
  2.251E+01  1.728E+01                                            1013200600168 
  2.259E+01  1.420E+01                                            1013200600169 
  2.266E+01  1.554E+01                                            1013200600170 
  2.278E+01  1.398E+01                                            1013200600171 
  2.306E+01  1.702E+01                                            1013200600172 
  2.318E+01  1.485E+01                                            1013200600173 
  2.330E+01  1.297E+01                                            1013200600174 
  2.362E+01  1.398E+01                                            1013200600175 
  2.366E+01  1.258E+01                                            1013200600176 
  2.394E+01  1.297E+01                                            1013200600177 
  2.414E+01  1.578E+01                                            1013200600178 
  2.418E+01  1.578E+01                                            1013200600179 
  2.430E+01  1.702E+01                                            1013200600180 
  2.446E+01  1.531E+01                                            1013200600181 
  2.462E+01  1.420E+01                                            1013200600182 
  2.486E+01  1.184E+01                                            1013200600183 
  2.510E+01  1.336E+01                                            1013200600184 
  2.522E+01  1.357E+01                                            1013200600185 
  2.546E+01  1.166E+01                                            1013200600186 
  2.562E+01  1.098E+01                                            1013200600187 
  2.566E+01  7.758E+00                                            1013200600188 
  2.606E+01  1.531E+01                                            1013200600189 
  2.622E+01  1.728E+01                                            1013200600190 
  2.642E+01  2.102E+01                                            1013200600191 
  2.658E+01  2.372E+01                                            1013200600192 
  2.686E+01  2.637E+01                                            1013200600193 
  2.710E+01  2.445E+01                                            1013200600194 
  2.730E+01  1.835E+01                                            1013200600195 
  2.738E+01  1.728E+01                                            1013200600196 
  2.754E+01  1.531E+01                                            1013200600197 
  2.794E+01  1.239E+01                                            1013200600198 
  2.810E+01  1.420E+01                                            1013200600199 
  2.834E+01  1.702E+01                                            1013200600200 
  2.857E+01  1.377E+01                                            1013200600201 
  2.857E+01  1.377E+01                                            1013200600202 
  2.877E+01  1.554E+01                                            1013200600203 
  2.905E+01  1.626E+01                                            1013200600204 
  2.913E+01  1.398E+01                                            1013200600205 
  2.917E+01  1.297E+01                                            1013200600206 
  2.937E+01  1.463E+01                                            1013200600207 
  2.949E+01  1.239E+01                                            1013200600208 
  2.965E+01  1.132E+01                                            1013200600209 
  2.981E+01  1.239E+01                                            1013200600210 
  3.013E+01  1.184E+01                                            1013200600211 
  3.025E+01  1.485E+01                                            1013200600212 
  3.045E+01  1.420E+01                                            1013200600213 
  3.065E+01  1.531E+01                                            1013200600214 
  3.089E+01  1.702E+01                                            1013200600215 
  3.109E+01  1.441E+01                                            1013200600216 
  3.125E+01  1.554E+01                                            1013200600217 
  3.145E+01  1.676E+01                                            1013200600218 
  3.153E+01  2.134E+01                                            1013200600219 
  3.189E+01  1.863E+01                                            1013200600220 
  3.205E+01  2.233E+01                                            1013200600221 
  3.225E+01  2.040E+01                                            1013200600222 
  3.237E+01  1.441E+01                                            1013200600223 
  3.249E+01  1.626E+01                                            1013200600224 
  3.261E+01  1.702E+01                                            1013200600225 
  3.289E+01  1.377E+01                                            1013200600226 
  3.309E+01  1.239E+01                                            1013200600227 
  3.345E+01  1.316E+01                                            1013200600228 
  3.369E+01  1.316E+01                                            1013200600229 
  3.401E+01  1.602E+01                                            1013200600230 
  3.425E+01  1.463E+01                                            1013200600231 
  3.444E+01  1.578E+01                                            1013200600232 
  3.468E+01  1.676E+01                                            1013200600233 
  3.488E+01  1.463E+01                                            1013200600234 
  3.512E+01  1.754E+01                                            1013200600235 
  3.532E+01  1.508E+01                                            1013200600236 
  3.580E+01  1.202E+01                                            1013200600237 
  3.608E+01  1.316E+01                                            1013200600238 
  3.624E+01  1.357E+01                                            1013200600239 
  3.660E+01  1.420E+01                                            1013200600240 
  3.680E+01  1.277E+01                                            1013200600241 
  3.704E+01  1.420E+01                                            1013200600242 
  3.724E+01  1.463E+01                                            1013200600243 
  3.764E+01  1.508E+01                                            1013200600244 
  3.784E+01  1.221E+01                                            1013200600245 
  3.824E+01  1.398E+01                                            1013200600246 
  3.848E+01  1.508E+01                                            1013200600247 
  3.872E+01  1.485E+01                                            1013200600248 
  3.892E+01  1.377E+01                                            1013200600249 
  3.928E+01  1.098E+01                                            1013200600250 
  3.976E+01  1.239E+01                                            1013200600251 
  4.047E+01  1.441E+01                                            1013200600252 
  4.079E+01  1.258E+01                                            1013200600253 
  4.127E+01  1.508E+01                                            1013200600254 
  4.171E+01  1.626E+01                                            1013200600255 
  4.195E+01  2.520E+01                                            1013200600256 
  4.219E+01  2.844E+01                                            1013200600257 
  4.251E+01  1.377E+01                                            1013200600258 
  4.275E+01  1.034E+01                                            1013200600259 
  4.283E+01  1.166E+01                                            1013200600260 
  4.299E+01  1.166E+01                                            1013200600261 
  4.307E+01  1.377E+01                                            1013200600262 
  4.331E+01  1.277E+01                                            1013200600263 
  4.339E+01  1.554E+01                                            1013200600264 
  4.367E+01  1.835E+01                                            1013200600265 
  4.375E+01  2.887E+01                                            1013200600266 
  4.399E+01  3.789E+01                                            1013200600267 
  4.431E+01  2.598E+01                                            1013200600268 
  4.439E+01  2.302E+01                                            1013200600269 
  4.459E+01  2.040E+01                                            1013200600270 
  4.471E+01  1.781E+01                                            1013200600271 
  4.491E+01  1.554E+01                                            1013200600272 
  4.503E+01  1.184E+01                                            1013200600273 
  4.531E+01  1.357E+01                                            1013200600274 
  4.535E+01  1.626E+01                                            1013200600275 
  4.551E+01  1.754E+01                                            1013200600276 
  4.571E+01  3.258E+01                                            1013200600277 
  4.575E+01  4.212E+01                                            1013200600278 
  4.591E+01  4.087E+01                                            1013200600279 
  4.614E+01  3.461E+01                                            1013200600280 
  4.638E+01  2.009E+01                                            1013200600281 
  4.658E+01  1.578E+01                                            1013200600282 
  4.678E+01  1.602E+01                                            1013200600283 
  4.730E+01  1.297E+01                                            1013200600284 
  4.734E+01  1.049E+01                                            1013200600285 
  4.750E+01  1.098E+01                                            1013200600286 
  4.766E+01  1.297E+01                                            1013200600287 
  4.774E+01  1.463E+01                                            1013200600288 
  4.806E+01  1.554E+01                                            1013200600289 
  4.815E+01  1.000E+01                                            1013200600290 
  4.848E+01  1.094E+01                                            1013200600291 
  4.895E+01  1.000E+01                                            1013200600292 
  4.941E+01  1.000E+01                                            1013200600293 
  4.967E+01  1.392E+01                                            1013200600294 
  5.000E+01  2.091E+01                                            1013200600295 
  5.059E+01  2.029E+01                                            1013200600296 
  5.072E+01  1.619E+01                                            1013200600297 
  5.099E+01  1.435E+01                                            1013200600298 
  5.152E+01  1.501E+01                                            1013200600299 
  5.185E+01  1.772E+01                                            1013200600300 
  5.198E+01  2.254E+01                                            1013200600301 
  5.211E+01  2.581E+01                                            1013200600302 
  5.224E+01  4.241E+01                                            1013200600303 
  5.264E+01  4.642E+01                                            1013200600304 
  5.277E+01  6.178E+01                                            1013200600305 
  5.297E+01  5.477E+01                                            1013200600306 
  5.310E+01  4.305E+01                                            1013200600307 
  5.329E+01  3.139E+01                                            1013200600308 
  5.356E+01  2.700E+01                                            1013200600309 
  5.389E+01  2.029E+01                                            1013200600310 
  5.395E+01  1.524E+01                                            1013200600311 
  5.442E+01  1.547E+01                                            1013200600312 
  5.501E+01  1.571E+01                                            1013200600313 
  5.540E+01  1.031E+01                                            1013200600314 
  5.593E+01  1.292E+01                                            1013200600315 
  5.646E+01  1.457E+01                                            1013200600316 
  5.699E+01  1.693E+01                                            1013200600317 
  5.738E+01  1.524E+01                                            1013200600318 
  5.797E+01  1.311E+01                                            1013200600319 
  5.830E+01  1.524E+01                                            1013200600320 
  5.876E+01  1.693E+01                                            1013200600321 
  5.896E+01  1.501E+01                                            1013200600322 
  5.956E+01  2.091E+01                                            1013200600323 
  6.002E+01  1.910E+01                                            1013200600324 
  6.074E+01  1.216E+01                                            1013200600325 
  6.081E+01  1.524E+01                                            1013200600326 
  6.127E+01  1.078E+01                                            1013200600327 
  6.180E+01  1.111E+01                                            1013200600328 
  6.193E+01  1.000E+01                                            1013200600329 
  6.245E+01  1.292E+01                                            1013200600330 
  6.325E+01  1.198E+01                                            1013200600331 
  6.384E+01  1.198E+01                                            1013200600332 
  6.437E+01  1.272E+01                                            1013200600333 
  6.483E+01  1.772E+01                                            1013200600334 
  6.522E+01  2.581E+01                                            1013200600335 
  6.542E+01  3.875E+01                                            1013200600336 
  6.575E+01  4.437E+01                                            1013200600337 
  6.621E+01  5.560E+01                                            1013200600338 
  6.687E+01  4.115E+01                                            1013200600339 
  6.700E+01  3.384E+01                                            1013200600340 
  6.773E+01  2.504E+01                                            1013200600341 
  6.792E+01  2.029E+01                                            1013200600342 
  6.825E+01  1.882E+01                                            1013200600343 
  6.839E+01  1.457E+01                                            1013200600344 
  6.891E+01  1.311E+01                                            1013200600345 
  6.911E+01  1.414E+01                                            1013200600346 
  6.970E+01  1.524E+01                                            1013200600347 
  7.043E+01  1.594E+01                                            1013200600348 
  7.069E+01  1.372E+01                                            1013200600349 
  7.115E+01  1.162E+01                                            1013200600350 
  7.175E+01  1.292E+01                                            1013200600351 
  7.201E+01  1.594E+01                                            1013200600352 
  7.254E+01  1.968E+01                                            1013200600353 
  7.293E+01  2.220E+01                                            1013200600354 
  7.372E+01  2.358E+01                                            1013200600355 
  7.405E+01  3.284E+01                                            1013200600356 
  7.418E+01  2.700E+01                                            1013200600357 
  7.458E+01  4.712E+01                                            1013200600358 
  7.491E+01  5.315E+01                                            1013200600359 
  7.511E+01  4.504E+01                                            1013200600360 
  7.577E+01  3.384E+01                                            1013200600361 
  7.590E+01  4.305E+01                                            1013200600362 
  7.610E+01  2.700E+01                                            1013200600363 
  7.689E+01  2.323E+01                                            1013200600364 
  7.755E+01  1.772E+01                                            1013200600365 
  7.774E+01  1.968E+01                                            1013200600366 
  7.820E+01  1.772E+01                                            1013200600367 
  7.840E+01  1.180E+01                                            1013200600368 
  7.860E+01  1.853E+01                                            1013200600369 
  7.906E+01  1.882E+01                                            1013200600370 
  7.919E+01  1.272E+01                                            1013200600371 
  7.932E+01  1.882E+01                                            1013200600372 
  7.998E+01  1.571E+01                                            1013200600373 
  8.005E+01  1.180E+01                                            1013200600374 
  8.031E+01  1.372E+01                                            1013200600375 
  8.064E+01  1.372E+01                                            1013200600376 
  8.110E+01  1.414E+01                                            1013200600377 
  8.157E+01  1.372E+01                                            1013200600378 
  8.176E+01  1.547E+01                                            1013200600379 
  8.209E+01  1.457E+01                                            1013200600380 
  8.249E+01  1.414E+01                                            1013200600381 
  8.295E+01  1.668E+01                                            1013200600382 
  8.354E+01  2.187E+01                                            1013200600383 
  8.374E+01  1.745E+01                                            1013200600384 
  8.394E+01  2.220E+01                                            1013200600385 
  8.446E+01  1.968E+01                                            1013200600386 
  8.486E+01  2.220E+01                                            1013200600387 
  8.565E+01  2.323E+01                                            1013200600388 
  8.591E+01  3.046E+01                                            1013200600389 
  8.624E+01  2.911E+01                                            1013200600390 
  8.671E+01  2.358E+01                                            1013200600391 
  8.743E+01  2.467E+01                                            1013200600392 
  8.756E+01  2.154E+01                                            1013200600393 
  8.789E+01  3.092E+01                                            1013200600394 
  8.875E+01  2.504E+01                                            1013200600395 
  8.895E+01  2.955E+01                                            1013200600396 
  8.954E+01  2.825E+01                                            1013200600397 
  9.000E+01  3.384E+01                                            1013200600398 
  9.191E+01  3.435E+01                                            1013200600399 
  9.223E+01  4.437E+01                                            1013200600400 
  9.398E+01  3.648E+01                                            1013200600401 
  9.445E+01  3.000E+01                                            1013200600402 
  9.493E+01  2.467E+01                                            1013200600403 
  9.541E+01  1.939E+01                                            1013200600404 
  9.605E+01  1.619E+01                                            1013200600405 
  9.668E+01  1.772E+01                                            1013200600406 
  9.748E+01  2.029E+01                                            1013200600407 
  9.843E+01  1.719E+01                                            1013200600408 
  9.907E+01  1.882E+01                                            1013200600409 
  1.000E+02  1.853E+01                                            1013200600410 
  1.008E+02  1.826E+01                                            1013200600411 
  1.015E+02  1.435E+01                                            1013200600412 
  1.018E+02  1.180E+01                                            1013200600413 
  1.022E+02  1.015E+01                                            1013200600414 
  1.030E+02  1.216E+01                                            1013200600415 
  1.034E+02  1.772E+01                                            1013200600416 
  1.042E+02  1.619E+01                                            1013200600417 
  1.053E+02  2.358E+01                                            1013200600418 
  1.054E+02  2.029E+01                                            1013200600419 
  1.069E+02  2.955E+01                                            1013200600420 
  1.081E+02  3.435E+01                                            1013200600421 
  1.094E+02  2.825E+01                                            1013200600422 
  1.097E+02  2.581E+01                                            1013200600423 
  1.107E+02  1.798E+01                                            1013200600424 
  1.113E+02  1.668E+01                                            1013200600425 
  1.120E+02  1.501E+01                                            1013200600426 
  1.123E+02  1.331E+01                                            1013200600427 
  1.135E+02  1.392E+01                                            1013200600428 
  1.150E+02  1.180E+01                                            1013200600429 
  1.151E+02  1.457E+01                                            1013200600430 
  1.159E+02  1.571E+01                                            1013200600431 
  1.166E+02  1.643E+01                                            1013200600432 
  1.175E+02  1.798E+01                                            1013200600433 
  1.182E+02  1.910E+01                                            1013200600434 
  1.188E+02  2.394E+01                                            1013200600435 
  1.194E+02  2.700E+01                                            1013200600436 
  1.199E+02  3.046E+01                                            1013200600437 
  1.204E+02  4.783E+01                                            1013200600438 
  1.210E+02  4.241E+01                                            1013200600439 
  1.220E+02  3.000E+01                                            1013200600440 
  1.225E+02  3.284E+01                                            1013200600441 
  1.228E+02  2.542E+01                                            1013200600442 
  1.237E+02  1.643E+01                                            1013200600443 
  1.245E+02  2.059E+01                                            1013200600444 
  1.248E+02  2.254E+01                                            1013200600445 
  1.256E+02  1.772E+01                                            1013200600446 
  1.260E+02  2.122E+01                                            1013200600447 
  1.266E+02  1.998E+01                                            1013200600448 
  1.271E+02  1.882E+01                                            1013200600449 
  1.275E+02  1.853E+01                                            1013200600450 
  1.285E+02  2.059E+01                                            1013200600451 
  1.290E+02  1.798E+01                                            1013200600452 
  1.295E+02  2.323E+01                                            1013200600453 
  1.309E+02  2.358E+01                                            1013200600454 
  1.322E+02  2.154E+01                                            1013200600455 
  1.326E+02  2.700E+01                                            1013200600456 
  1.341E+02  3.139E+01                                            1013200600457 
  1.349E+02  3.000E+01                                            1013200600458 
  1.355E+02  2.868E+01                                            1013200600459 
  1.361E+02  2.323E+01                                            1013200600460 
  1.366E+02  2.700E+01                                            1013200600461 
  1.379E+02  2.254E+01                                            1013200600462 
  1.385E+02  2.430E+01                                            1013200600463 
  1.395E+02  1.998E+01                                            1013200600464 
  1.396E+02  1.719E+01                                            1013200600465 
  1.404E+02  2.091E+01                                            1013200600466 
  1.415E+02  1.939E+01                                            1013200600467 
  1.420E+02  2.091E+01                                            1013200600468 
  1.433E+02  1.668E+01                                            1013200600469 
  1.436E+02  1.939E+01                                            1013200600470 
  1.444E+02  1.853E+01                                            1013200600471 
  1.454E+02  2.187E+01                                            1013200600472 
  1.462E+02  2.430E+01                                            1013200600473 
  1.476E+02  2.323E+01                                            1013200600474 
  1.484E+02  2.394E+01                                            1013200600475 
  1.495E+02  2.091E+01                                            1013200600476 
  1.500E+02  1.910E+01                                            1013200600477 
  1.516E+02  1.643E+01                                            1013200600478 
  1.524E+02  1.772E+01                                            1013200600479 
  1.527E+02  1.594E+01                                            1013200600480 
  1.538E+02  1.643E+01                                            1013200600481 
  1.544E+02  1.571E+01                                            1013200600482 
  1.549E+02  1.501E+01                                            1013200600483 
  1.559E+02  1.619E+01                                            1013200600484 
  1.568E+02  2.029E+01                                            1013200600485 
  1.584E+02  1.693E+01                                            1013200600486 
  1.592E+02  1.826E+01                                            1013200600487 
  1.597E+02  1.457E+01                                            1013200600488 
  1.607E+02  3.388E+01                                            1013200600489 
  1.624E+02  3.342E+01                                            1013200600490 
  1.639E+02  3.876E+01                                            1013200600491 
  1.654E+02  3.875E+01                                            1013200600492 
  1.660E+02  3.526E+01                                            1013200600493 
  1.674E+02  3.207E+01                                            1013200600494 
  1.683E+02  2.583E+01                                            1013200600495 
  1.686E+02  2.382E+01                                            1013200600496 
  1.695E+02  1.972E+01                                            1013200600497 
  1.712E+02  1.818E+01                                            1013200600498 
  1.733E+02  2.381E+01                                            1013200600499 
  1.739E+02  1.524E+01                                            1013200600500 
  1.745E+02  1.444E+01                                            1013200600501 
  1.757E+02  1.841E+01                                            1013200600502 
  1.765E+02  1.608E+01                                            1013200600503 
  1.783E+02  1.608E+01                                            1013200600504 
  1.792E+02  1.367E+01                                            1013200600505 
  1.807E+02  1.462E+01                                            1013200600506 
  1.824E+02  1.696E+01                                            1013200600507 
  1.833E+02  1.210E+01                                            1013200600508 
  1.839E+02  1.502E+01                                            1013200600509 
  1.857E+02  1.673E+01                                            1013200600510 
  1.863E+02  1.461E+01                                            1013200600511 
  1.872E+02  1.888E+01                                            1013200600512 
  1.883E+02  1.741E+01                                            1013200600513 
  1.889E+02  1.521E+01                                            1013200600514 
  1.907E+02  1.862E+01                                            1013200600515 
  1.922E+02  1.740E+01                                            1013200600516 
  1.933E+02  1.500E+01                                            1013200600517 
  1.963E+02  1.716E+01                                            1013200600518 
  1.966E+02  2.217E+01                                            1013200600519 
  1.993E+02  1.885E+01                                            1013200600520 
  2.002E+02  2.308E+01                                            1013200600521 
  2.025E+02  2.127E+01                                            1013200600522 
  2.031E+02  1.646E+01                                            1013200600523 
  2.043E+02  2.015E+01                                            1013200600524 
  2.058E+02  2.467E+01                                            1013200600525 
  2.066E+02  2.155E+01                                            1013200600526 
  2.072E+02  2.639E+01                                            1013200600527 
  2.093E+02  2.305E+01                                            1013200600528 
  2.102E+02  1.644E+01                                            1013200600529 
  2.114E+02  2.068E+01                                            1013200600530 
  2.128E+02  1.856E+01                                            1013200600531 
  2.140E+02  1.188E+01                                            1013200600532 
  2.152E+02  1.932E+01                                            1013200600533 
  2.172E+02  1.710E+01                                            1013200600534 
  2.181E+02  1.556E+01                                            1013200600535 
  2.190E+02  1.780E+01                                            1013200600536 
  2.214E+02  2.037E+01                                            1013200600537 
  2.226E+02  1.732E+01                                            1013200600538 
  2.249E+02  1.929E+01                                            1013200600539 
  2.267E+02  1.928E+01                                            1013200600540 
  2.273E+02  2.177E+01                                            1013200600541 
  2.291E+02  2.329E+01                                            1013200600542 
  2.305E+02  1.851E+01                                            1013200600543 
  2.317E+02  2.147E+01                                            1013200600544 
  2.335E+02  1.825E+01                                            1013200600545 
  2.355E+02  2.117E+01                                            1013200600546 
  2.382E+02  2.389E+01                                            1013200600547 
  2.391E+02  1.530E+01                                            1013200600548 
  2.403E+02  1.977E+01                                            1013200600549 
  2.423E+02  2.058E+01                                            1013200600550 
  2.435E+02  1.550E+01                                            1013200600551 
  2.447E+02  2.387E+01                                            1013200600552 
  2.474E+02  2.587E+01                                            1013200600553 
  2.482E+02  2.260E+01                                            1013200600554 
  2.494E+02  2.767E+01                                            1013200600555 
  2.518E+02  2.960E+01                                            1013200600556 
  2.536E+02  2.919E+01                                            1013200600557 
  2.547E+02  3.122E+01                                            1013200600558 
  2.571E+02  2.515E+01                                            1013200600559 
  2.580E+02  1.945E+01                                            1013200600560 
  2.594E+02  2.109E+01                                            1013200600561 
  2.621E+02  2.195E+01                                            1013200600562 
  2.644E+02  2.108E+01                                            1013200600563 
  2.665E+02  1.278E+01                                            1013200600564 
  2.680E+02  1.331E+01                                            1013200600565 
  2.703E+02  1.367E+01                                            1013200600566 
  2.727E+02  2.283E+01                                            1013200600567 
  2.739E+02  1.967E+01                                            1013200600568 
  2.757E+02  3.660E+01                                            1013200600569 
  2.783E+02  3.070E+01                                            1013200600570 
  2.795E+02  2.645E+01                                            1013200600571 
  2.819E+02  3.238E+01                                            1013200600572 
  2.839E+02  2.867E+01                                            1013200600573 
  2.854E+02  2.538E+01                                            1013200600574 
  2.904E+02  2.469E+01                                            1013200600575 
  2.916E+02  1.737E+01                                            1013200600576 
  2.933E+02  2.015E+01                                            1013200600577 
  2.966E+02  2.401E+01                                            1013200600578 
  2.981E+02  1.832E+01                                            1013200600579 
  2.993E+02  2.432E+01                                            1013200600580 
  3.028E+02  2.566E+01                                            1013200600581 
  3.046E+02  2.123E+01                                            1013200600582 
  3.060E+02  2.530E+01                                            1013200600583 
  3.090E+02  3.014E+01                                            1013200600584 
  3.099E+02  2.270E+01                                            1013200600585 
  3.128E+02  2.932E+01                                            1013200600586 
  3.161E+02  2.330E+01                                            1013200600587 
  3.178E+02  1.954E+01                                            1013200600588 
  3.193E+02  2.392E+01                                            1013200600589 
  3.235E+02  2.850E+01                                            1013200600590 
  3.243E+02  2.391E+01                                            1013200600591 
  3.267E+02  2.522E+01                                            1013200600592 
  3.302E+02  2.847E+01                                            1013200600593 
  3.323E+02  2.696E+01                                            1013200600594 
  3.341E+02  2.845E+01                                            1013200600595 
  3.376E+02  3.042E+01                                            1013200600596 
  3.400E+02  2.920E+01                                            1013200600597 
  3.420E+02  3.527E+01                                            1013200600598 
  3.459E+02  3.038E+01                                            1013200600599 
  3.479E+02  2.654E+01                                            1013200600600 
  3.497E+02  3.523E+01                                            1013200600601 
  3.532E+02  2.994E+01                                            1013200600602 
  3.556E+02  2.546E+01                                            1013200600603 
  3.618E+02  1.742E+01                                            1013200600604 
  3.638E+02  2.076E+01                                            1013200600605 
  3.665E+02  2.132E+01                                            1013200600606 
  3.703E+02  1.627E+01                                            1013200600607 
  3.738E+02  1.693E+01                                            1013200600608 
  3.747E+02  1.886E+01                                            1013200600609 
  3.791E+02  1.498E+01                                            1013200600610 
  3.818E+02  1.668E+01                                            1013200600611 
  3.842E+02  1.961E+01                                            1013200600612 
  3.886E+02  2.899E+01                                            1013200600613 
  3.910E+02  1.959E+01                                            1013200600614 
  3.933E+02  2.067E+01                                            1013200600615 
  3.980E+02  1.434E+01                                            1013200600616 
  4.004E+02  1.270E+01                                            1013200600617 
  4.033E+02  1.619E+01                                            1013200600618 
  4.077E+02  1.357E+01                                            1013200600619 
  4.101E+02  1.639E+01                                            1013200600620 
  4.131E+02  1.729E+01                                            1013200600621 
  4.184E+02  1.449E+01                                            1013200600622 
  4.210E+02  1.798E+01                                            1013200600623 
  4.234E+02  1.215E+01                                            1013200600624 
  4.287E+02  1.487E+01                                            1013200600625 
  4.316E+02  1.634E+01                                            1013200600626 
  4.346E+02  1.655E+01                                            1013200600627 
  4.399E+02  2.318E+01                                            1013200600628 
  4.428E+02  1.332E+01                                            1013200600629 
  4.461E+02  1.891E+01                                            1013200600630 
  4.520E+02  1.719E+01                                            1013200600631 
  4.546E+02  1.422E+01                                            1013200600632 
  4.576E+02  2.103E+01                                            1013200600633 
  4.638E+02  1.561E+01                                            1013200600634 
ENDDATA            621          0                                 1013200600635 
ENDSUBENT          634          0                                 1013200699999 
ENDENTRY             6          0                                 1013299999999 
