ENTRY            10299   19990120                             00001029900000001 
SUBENT        10299001   19990120                             00001029900100001 
BIB                 12         17                                 1029900100002 
INSTITUTE  (1USARPI)                                              1029900100003 
REFERENCE  (J,NSE,51,25,197305)                                   1029900100004 
           (J,ANS,15,531,197206)                                  1029900100005 
AUTHOR     (K.A.ALFIERI,R.C.BLOCK,P.J.TURINSKY)                   1029900100006 
TITLE      Measurement and evaluation of total neutron cross-     1029900100007 
            section minima in elemental iron from 24 to 750 keV.  1029900100008 
FACILITY   (LINAC) RPI electron linac                             1029900100009 
INC-SOURCE (EVAP) 70-MeV electrons on tantalum target.            1029900100010 
SAMPLE     Armco iron samples.                                    1029900100011 
METHOD     (TOF) Time-of-flight. Flight path 28.32 meters.        1029900100012 
            Channel width 31.25 nsec.                             1029900100013 
DETECTOR   (NAICR) 10B-NaI detector.                              1029900100014 
STATUS     (APRVD) Approved by author.                            1029900100015 
ERR-ANALYS No information.                                        1029900100016 
HISTORY    (19730629C)                                            1029900100017 
           (19830117A) Converted to REACTION formalism            1029900100018 
           (19990120A) BIB updated, converted to lower case.      1029900100019 
ENDBIB              17          0                                 1029900100020 
NOCOMMON             0          0                                 1029900100021 
ENDSUBENT           20          0                                 1029900199999 
SUBENT        10299002   19990120                             00001029900200001 
BIB                  3          3                                 1029900200002 
REACTION   (26-FE-0(N,TOT),,SIG)                                  1029900200003 
STATUS     (CURVE) Data read from large curve                     1029900200004 
HISTORY    (19780314A) Additional data added.                     1029900200005 
ENDBIB               3          0                                 1029900200006 
NOCOMMON             0          0                                 1029900200007 
DATA                 4         42                                 1029900200008 
EN         EN-RSL     DATA       DATA-ERR                         1029900200009 
KEV        KEV        B          B                                1029900200010 
 21.12                 1.26                                       1029900200011 
 21.21                 0.94                                       1029900200012 
 21.30                 1.18                                       1029900200013 
 21.40                 1.251                                      1029900200014 
 21.51                 1.325                                      1029900200015 
 21.6                  1.08       0.07                            1029900200016 
 21.71                 1.205                                      1029900200017 
 21.8                  1.15                                       1029900200018 
 21.9                  1.10                                       1029900200019 
 22.0                  0.96                                       1029900200020 
 22.1                  1.11                                       1029900200021 
 22.2                  0.945                                      1029900200022 
 22.3                  0.975                                      1029900200023 
 22.4                  0.849                                      1029900200024 
 22.5                  0.918                                      1029900200025 
 22.61                 0.788                                      1029900200026 
 22.72                 0.819                                      1029900200027 
 22.84                 0.735      0.03                            1029900200028 
 22.92                 0.75                                       1029900200029 
 23.02                 0.665                                      1029900200030 
 23.14                 0.675                                      1029900200031 
 23.23                 0.645                                      1029900200032 
 23.35                 0.607                                      1029900200033 
 23.46                 0.565                                      1029900200034 
 23.58                 0.525                                      1029900200035 
 23.68                 0.535                                      1029900200036 
 23.80                 0.480                                      1029900200037 
 23.90                 0.475                                      1029900200038 
 24.02                 0.445      0.02                            1029900200039 
 24.14                 0.420                                      1029900200040 
 24.26                 0.415      0.15                            1029900200041 
 24.3       0.1        0.42       0.03                            1029900200042 
 24.36                 0.440                                      1029900200043 
 24.48                 0.415                                      1029900200044 
 24.6                  0.445                                      1029900200045 
 24.72                 0.46       0.2                             1029900200046 
 24.84                 0.525                                      1029900200047 
 24.95                 0.598                                      1029900200048 
 25.08                 0.698                                      1029900200049 
 25.19                 0.835                                      1029900200050 
 25.32                 1.04       0.05                            1029900200051 
 25.47                 1.3                                        1029900200052 
ENDDATA             44          0                                 1029900200053 
ENDSUBENT           52          0                                 1029900299999 
SUBENT        10299003   19990120                             00001029900300001 
BIB                  4          8                                 1029900300002 
REACTION  1(26-FE-0(N,TOT),,SIG,,RAW)                             1029900300003 
          2(26-FE-0(N,TOT),,SIG,,RAW)                             1029900300004 
            Transmission data                                     1029900300005 
SAMPLE    1Sample thicknesses - 35.56 CM.                         1029900300006 
          2Sample thicknesses - 50.673 cm.                        1029900300007 
STATUS     Data received on punched cards, Turinsky, 1973/6/27.   1029900300008 
HISTORY    (19750702C)                                            1029900300009 
           (19990120A) Data converted from CSISRS/A.              1029900300010 
ENDBIB               8          0                                 1029900300011 
NOCOMMON             0          0                                 1029900300012 
DATA                 3        707                                 1029900300013 
EN         DATA      1DATA      2                                 1029900300014 
EV         NO-DIM     NO-DIM                                      1029900300015 
  2.542E+06                3.                                     1029900300016 
  2.423E+06    14.                                                1029900300017 
  2.312E+06     8.         3.                                     1029900300018 
  2.208E+06     6.         5.                                     1029900300019 
  2.111E+06    16.         2.                                     1029900300020 
  2.020E+06    10.                                                1029900300021 
  1.935E+06    22.                                                1029900300022 
  1.855E+06    32.                                                1029900300023 
  1.780E+06    20.         3.                                     1029900300024 
  1.710E+06    20.         3.                                     1029900300025 
  1.643E+06    36.                                                1029900300026 
  1.581E+06    22.         8.                                     1029900300027 
  1.522E+06    46.         1.                                     1029900300028 
  1.466E+06    62.         4.                                     1029900300029 
  1.413E+06    78.         6.                                     1029900300030 
  1.363E+06    64.                                                1029900300031 
  1.316E+06    76.         5.                                     1029900300032 
  1.271E+06    66.        14.                                     1029900300033 
  1.228E+06   154.        38.                                     1029900300034 
  1.188E+06   276.        59.                                     1029900300035 
  1.149E+06   270.        59.                                     1029900300036 
  1.112E+06   216.        29.                                     1029900300037 
  1.077E+06   184.        45.                                     1029900300038 
  1.044E+06   160.        34.                                     1029900300039 
  1.012E+06   230.        41.                                     1029900300040 
  9.815E+05   280.        69.                                     1029900300041 
  9.524E+05   574.       146.                                     1029900300042 
  9.246E+05   526.       181.                                     1029900300043 
  8.980E+05   318.        69.                                     1029900300044 
  8.725E+05   208.        44.                                     1029900300045 
  8.481E+05   202.        46.                                     1029900300046 
  8.248E+05   212.        40.                                     1029900300047 
  8.023E+05   102.        21.                                     1029900300048 
  7.808E+05    34.         3.                                     1029900300049 
  7.601E+05    56.        18.                                     1029900300050 
  7.402E+05   116.        35.                                     1029900300051 
  7.211E+05   320.        89.                                     1029900300052 
  7.028E+05   862.       280.                                     1029900300053 
  6.851E+05   842.       246.                                     1029900300054 
  6.681E+05   682.       249.                                     1029900300055 
  6.517E+05  1922.       653.                                     1029900300056 
  6.359E+05  2270.       860.                                     1029900300057 
  6.207E+05  1636.       488.                                     1029900300058 
  6.060E+05  1440.       495.                                     1029900300059 
  5.918E+05   782.       212.                                     1029900300060 
  5.781E+05   302.        82.                                     1029900300061 
  5.649E+05   284.        63.                                     1029900300062 
  5.522E+05   306.        50.                                     1029900300063 
  5.398E+05   202.        45.                                     1029900300064 
  5.279E+05   190.        50.                                     1029900300065 
  5.164E+05    70.        12.                                     1029900300066 
  5.052E+05   112.        42.                                     1029900300067 
  4.944E+05   242.        57.                                     1029900300068 
  4.839E+05   194.        41.                                     1029900300069 
  4.738E+05   644.       316.                                     1029900300070 
  4.640E+05  1146.       498.                                     1029900300071 
  4.545E+05   530.       219.                                     1029900300072 
  4.452E+05   244.        97.                                     1029900300073 
  4.363E+05   306.       113.                                     1029900300074 
  4.276E+05   248.        66.                                     1029900300075 
  4.192E+05    82.        14.                                     1029900300076 
  4.110E+05    40.        16.                                     1029900300077 
  4.031E+05    66.        12.                                     1029900300078 
  3.954E+05    38.         9.                                     1029900300079 
  3.879E+05    72.        24.                                     1029900300080 
  3.806E+05  1092.       444.                                     1029900300081 
  3.735E+05  2446.      1079.                                     1029900300082 
  3.666E+05  1410.       622.                                     1029900300083 
  3.599E+05  1392.       612.                                     1029900300084 
  3.534E+05  3304.      1510.                                     1029900300085 
  3.471E+05  3602.      1578.                                     1029900300086 
  3.409E+05  1788.       625.                                     1029900300087 
  3.349E+05   812.       292.                                     1029900300088 
  3.290E+05   594.       278.                                     1029900300089 
  3.233E+05   356.       161.                                     1029900300090 
  3.178E+05  1094.       557.                                     1029900300091 
  3.124E+05  4976.      2383.                                     1029900300092 
  3.071E+05  6850.      3124.                                     1029900300093 
  3.020E+05  4366.      1692.                                     1029900300094 
  2.970E+05  2062.       713.                                     1029900300095 
  2.921E+05   920.       294.                                     1029900300096 
  2.873E+05   460.       127.                                     1029900300097 
  2.827E+05   248.        95.                                     1029900300098 
  2.781E+05   950.       445.                                     1029900300099 
  2.737E+05  4022.      1901.                                     1029900300100 
  2.694E+05  4696.      2005.                                     1029900300101 
  2.651E+05  2130.       849.                                     1029900300102 
  2.610E+05   882.       328.                                     1029900300103 
  2.570E+05   474.       152.                                     1029900300104 
  2.530E+05   262.        63.                                     1029900300105 
  2.492E+05   184.        58.                                     1029900300106 
  2.454E+05   460.       136.                                     1029900300107 
  2.418E+05   608.       204.                                     1029900300108 
  2.382E+05   322.        91.                                     1029900300109 
  2.346E+05   172.        51.                                     1029900300110 
  2.312E+05    98.        39.                                     1029900300111 
  2.278E+05    62.        19.                                     1029900300112 
  2.246E+05    98.        40.                                     1029900300113 
  2.213E+05   960.       459.                                     1029900300114 
  2.182E+05  2454.      1218.                                     1029900300115 
  2.151E+05  1684.       730.                                     1029900300116 
  2.121E+05   596.       231.                                     1029900300117 
  2.091E+05   276.       103.                                     1029900300118 
  2.062E+05   184.        56.                                     1029900300119 
  2.034E+05   122.        19.                                     1029900300120 
  2.006E+05    30.        20.                                     1029900300121 
  1.979E+05    40.        18.                                     1029900300122 
  1.952E+05    28.        17.                                     1029900300123 
  1.926E+05    52.         6.                                     1029900300124 
  1.901E+05    16.         9.                                     1029900300125 
  1.876E+05   224.        76.                                     1029900300126 
  1.851E+05  1740.       681.                                     1029900300127 
  1.827E+05  3694.      1380.                                     1029900300128 
  1.803E+05  2392.       812.                                     1029900300129 
  1.780E+05   988.       286.                                     1029900300130 
  1.757E+05   490.       164.                                     1029900300131 
  1.735E+05   280.        95.                                     1029900300132 
  1.713E+05   250.       138.                                     1029900300133 
  1.692E+05  1854.       991.                                     1029900300134 
  1.671E+05  4612.      2590.                                     1029900300135 
  1.650E+05  3098.      1450.                                     1029900300136 
  1.630E+05  1200.       503.                                     1029900300137 
  1.610E+05   610.       263.                                     1029900300138 
  1.590E+05   296.       136.                                     1029900300139 
  1.571E+05   216.        88.                                     1029900300140 
  1.552E+05   108.        47.                                     1029900300141 
  1.533E+05    64.        37.                                     1029900300142 
  1.515E+05    78.        21.                                     1029900300143 
  1.497E+05    56.        17.                                     1029900300144 
  1.480E+05    32.        14.                                     1029900300145 
  1.463E+05    44.        16.                                     1029900300146 
  1.446E+05    36.        13.                                     1029900300147 
  1.429E+05    18.         7.                                     1029900300148 
  1.413E+05    44.        21.                                     1029900300149 
  1.396E+05   586.       340.                                     1029900300150 
  1.381E+05  4996.      2929.                                     1029900300151 
  1.365E+05 10172.      6106.                                     1029900300152 
  1.350E+05  6818.      3705.                                     1029900300153 
  1.335E+05  2748.      1312.                                     1029900300154 
  1.320E+05  1224.       612.                                     1029900300155 
  1.305E+05   922.       407.                                     1029900300156 
  1.291E+05  2038.       922.                                     1029900300157 
  1.277E+05  3552.      1482.                                     1029900300158 
  1.263E+05  2628.       907.                                     1029900300159 
  1.250E+05  1344.       408.                                     1029900300160 
  1.236E+05   758.       239.                                     1029900300161 
  1.223E+05   520.       117.                                     1029900300162 
  1.210E+05   368.        84.                                     1029900300163 
  1.197E+05   212.        58.                                     1029900300164 
  1.185E+05   214.        58.                                     1029900300165 
  1.172E+05   162.        37.                                     1029900300166 
  1.160E+05   118.        30.                                     1029900300167 
  1.148E+05    94.        34.                                     1029900300168 
  1.136E+05    80.        24.                                     1029900300169 
  1.125E+05    60.        21.                                     1029900300170 
  1.113E+05    54.        17.                                     1029900300171 
  1.102E+05    44.        20.                                     1029900300172 
  1.091E+05    64.        15.                                     1029900300173 
  1.080E+05    38.        19.                                     1029900300174 
  1.069E+05    28.         9.                                     1029900300175 
  1.059E+05    28.        12.                                     1029900300176 
  1.048E+05    26.         4.                                     1029900300177 
  1.038E+05    42.         5.                                     1029900300178 
  1.028E+05     6.        21.                                     1029900300179 
  1.018E+05    20.        15.                                     1029900300180 
  1.008E+05    14.         7.                                     1029900300181 
  9.981E+04    16.                                                1029900300182 
  9.886E+04    12.         8.                                     1029900300183 
  9.791E+04    18.         1.                                     1029900300184 
  9.698E+04    22.         3.                                     1029900300185 
  9.606E+04    14.        13.                                     1029900300186 
  9.516E+04    26.         6.                                     1029900300187 
  9.427E+04     2.        22.                                     1029900300188 
  9.339E+04    14.         5.                                     1029900300189 
  9.252E+04    22.        18.                                     1029900300190 
  9.167E+04                3.                                     1029900300191 
  9.083E+04                9.                                     1029900300192 
  8.999E+04    10.         6.                                     1029900300193 
  8.917E+04    12.         8.                                     1029900300194 
  8.757E+04     6.                                                1029900300195 
  8.678E+04    10.        19.                                     1029900300196 
  8.600E+04    12.         5.                                     1029900300197 
  8.524E+04    12.         7.                                     1029900300198 
  8.448E+04     8.         4.                                     1029900300199 
  8.374E+04    12.        13.                                     1029900300200 
  8.300E+04   364.       174.                                     1029900300201 
  8.227E+04  2804.      1437.                                     1029900300202 
  8.156E+04  5638.      2883.                                     1029900300203 
  8.085E+04  4178.      1796.                                     1029900300204 
  8.015E+04  1612.       616.                                     1029900300205 
  7.946E+04   790.       269.                                     1029900300206 
  7.878E+04   424.       153.                                     1029900300207 
  7.811E+04   226.       107.                                     1029900300208 
  7.745E+04   146.        88.                                     1029900300209 
  7.679E+04   116.        62.                                     1029900300210 
  7.614E+04    76.        40.                                     1029900300211 
  7.551E+04    60.        39.                                     1029900300212 
  7.488E+04    48.        22.                                     1029900300213 
  7.425E+04    38.        18.                                     1029900300214 
  7.364E+04    52.        25.                                     1029900300215 
  7.303E+04   144.        32.                                     1029900300216 
  7.243E+04   154.        34.                                     1029900300217 
  7.184E+04   106.        10.                                     1029900300218 
  7.125E+04   116.        17.                                     1029900300219 
  7.068E+04   186.        33.                                     1029900300220 
  7.010E+04   264.        28.                                     1029900300221 
  6.954E+04   216.        37.                                     1029900300222 
  6.898E+04   196.        14.                                     1029900300223 
  6.843E+04   110.        15.                                     1029900300224 
  6.789E+04    78.         8.                                     1029900300225 
  6.735E+04    40.         8.                                     1029900300226 
  6.682E+04    24.        11.                                     1029900300227 
  6.629E+04    38.        14.                                     1029900300228 
  6.577E+04    34.         5.                                     1029900300229 
  6.526E+04    24.        12.                                     1029900300230 
  6.476E+04    14.                                                1029900300231 
  6.425E+04    20.                                                1029900300232 
  6.376E+04    26.         3.                                     1029900300233 
  6.327E+04     6.                                                1029900300234 
  6.279E+04     8.         4.                                     1029900300235 
  6.231E+04    14.         5.                                     1029900300236 
  6.183E+04    16.         2.                                     1029900300237 
  6.137E+04    10.         7.                                     1029900300238 
  6.090E+04                2.                                     1029900300239 
  6.045E+04     4.         4.                                     1029900300240 
  6.000E+04     8.         6.                                     1029900300241 
  5.955E+04     2.         7.                                     1029900300242 
  5.911E+04    16.                                                1029900300243 
  5.867E+04    14.                                                1029900300244 
  5.824E+04     6.         1.                                     1029900300245 
  5.781E+04    18.         7.                                     1029900300246 
  5.739E+04     6.         5.                                     1029900300247 
  5.697E+04    10.         1.                                     1029900300248 
  5.656E+04     8.         4.                                     1029900300249 
  5.615E+04     8.         3.                                     1029900300250 
  5.574E+04    16.                                                1029900300251 
  5.534E+04     8.                                                1029900300252 
  5.495E+04    14.                                                1029900300253 
  5.455E+04    18.                                                1029900300254 
  5.417E+04                2.                                     1029900300255 
  5.378E+04     8.         4.                                     1029900300256 
  5.340E+04                1.                                     1029900300257 
  5.303E+04     4.         2.                                     1029900300258 
  5.266E+04     8.         3.                                     1029900300259 
  5.229E+04     4.         3.                                     1029900300260 
  5.193E+04     2.                                                1029900300261 
  5.157E+04    18.         2.                                     1029900300262 
  5.086E+04                8.                                     1029900300263 
  5.051E+04                4.                                     1029900300264 
  5.016E+04     2.                                                1029900300265 
  4.982E+04    16.                                                1029900300266 
  4.915E+04    14.                                                1029900300267 
  4.882E+04                6.                                     1029900300268 
  4.849E+04    12.                                                1029900300269 
  4.816E+04     6.                                                1029900300270 
  4.784E+04               10.                                     1029900300271 
  4.752E+04     2.                                                1029900300272 
  4.721E+04     4.                                                1029900300273 
  4.690E+04     6.                                                1029900300274 
  4.659E+04    12.         2.                                     1029900300275 
  4.628E+04     4.        12.                                     1029900300276 
  4.598E+04                2.                                     1029900300277 
  4.568E+04    10.                                                1029900300278 
  4.538E+04    12.                                                1029900300279 
  4.509E+04                5.                                     1029900300280 
  4.451E+04     4.         4.                                     1029900300281 
  4.422E+04    16.                                                1029900300282 
  4.394E+04    10.                                                1029900300283 
  4.366E+04     4.                                                1029900300284 
  4.338E+04                6.                                     1029900300285 
  4.311E+04     6.         2.                                     1029900300286 
  4.256E+04     6.                                                1029900300287 
  4.203E+04     4.                                                1029900300288 
  4.177E+04                4.                                     1029900300289 
  4.151E+04     4.                                                1029900300290 
  4.125E+04    14.                                                1029900300291 
  4.074E+04     2.         5.                                     1029900300292 
  4.049E+04     6.         3.                                     1029900300293 
  4.025E+04     2.                                                1029900300294 
  4.000E+04    14.         7.                                     1029900300295 
  3.976E+04                4.                                     1029900300296 
  3.928E+04                1.                                     1029900300297 
  3.904E+04     6.         1.                                     1029900300298 
  3.880E+04                1.                                     1029900300299 
  3.857E+04     8.         6.                                     1029900300300 
  3.834E+04     6.                                                1029900300301 
  3.789E+04     4.         4.                                     1029900300302 
  3.766E+04                2.                                     1029900300303 
  3.744E+04    14.                                                1029900300304 
  3.722E+04    24.                                                1029900300305 
  3.700E+04     4.                                                1029900300306 
  3.678E+04     4.                                                1029900300307 
  3.657E+04                1.                                     1029900300308 
  3.636E+04     2.         6.                                     1029900300309 
  3.614E+04     8.         4.                                     1029900300310 
  3.594E+04     6.         4.                                     1029900300311 
  3.573E+04     4.                                                1029900300312 
  3.492E+04     2.                                                1029900300313 
  3.472E+04     4.                                                1029900300314 
  3.452E+04                7.                                     1029900300315 
  3.413E+04     4.         1.                                     1029900300316 
  3.375E+04                2.                                     1029900300317 
  3.356E+04     8.        12.                                     1029900300318 
  3.319E+04    12.         3.                                     1029900300319 
  3.282E+04     6.                                                1029900300320 
  3.264E+04                1.                                     1029900300321 
  3.246E+04     6.                                                1029900300322 
  3.210E+04     8.         5.                                     1029900300323 
  3.158E+04     4.         1.                                     1029900300324 
  3.141E+04                2.                                     1029900300325 
  3.124E+04                4.                                     1029900300326 
  3.108E+04     4.         8.                                     1029900300327 
  3.091E+04     4.                                                1029900300328 
  3.074E+04     2.        18.                                     1029900300329 
  3.058E+04    12.                                                1029900300330 
  3.025E+04     4.                                                1029900300331 
  3.009E+04     2.                                                1029900300332 
  2.993E+04    10.         1.                                     1029900300333 
  2.978E+04     2.                                                1029900300334 
  2.962E+04                5.                                     1029900300335 
  2.947E+04                2.                                     1029900300336 
  2.931E+04    12.                                                1029900300337 
  2.886E+04     4.                                                1029900300338 
  2.871E+04     6.                                                1029900300339 
  2.856E+04     2.         2.                                     1029900300340 
  2.841E+04    26.         2.                                     1029900300341 
  2.812E+04     4.         3.                                     1029900300342 
  2.798E+04     4.         1.                                     1029900300343 
  2.783E+04     4.         3.                                     1029900300344 
  2.769E+04                2.                                     1029900300345 
  2.755E+04                3.                                     1029900300346 
  2.741E+04                1.                                     1029900300347 
  2.728E+04     6.         3.                                     1029900300348 
  2.714E+04     2.                                                1029900300349 
  2.700E+04    10.                                                1029900300350 
  2.687E+04                3.                                     1029900300351 
  2.647E+04     8.         8.                                     1029900300352 
  2.634E+04     2.                                                1029900300353 
  2.621E+04    10.         1.                                     1029900300354 
  2.608E+04     8.                                                1029900300355 
  2.595E+04     4.                                                1029900300356 
  2.582E+04    38.         1.                                     1029900300357 
  2.569E+04    96.         9.                                     1029900300358 
  2.557E+04   338.        42.                                     1029900300359 
  2.544E+04   688.       131.                                     1029900300360 
  2.532E+04  1392.       371.                                     1029900300361 
  2.520E+04  2520.       874.                                     1029900300362 
  2.508E+04  3758.      1548.                                     1029900300363 
  2.496E+04  5258.      2454.                                     1029900300364 
  2.484E+04  6768.      3447.                                     1029900300365 
  2.472E+04  7732.      4315.                                     1029900300366 
  2.460E+04  9016.      5092.                                     1029900300367 
  2.448E+04  9708.      5712.                                     1029900300368 
  2.436E+04 10086.      5802.                                     1029900300369 
  2.425E+04  9642.      5704.                                     1029900300370 
  2.413E+04  9620.      5638.                                     1029900300371 
  2.402E+04  9438.      5373.                                     1029900300372 
  2.390E+04  8806.      4798.                                     1029900300373 
  2.379E+04  8092.      4366.                                     1029900300374 
  2.368E+04  7400.      3741.                                     1029900300375 
  2.357E+04  6884.      3518.                                     1029900300376 
  2.346E+04  6134.      2988.                                     1029900300377 
  2.335E+04  5678.      2628.                                     1029900300378 
  2.324E+04  5190.      2294.                                     1029900300379 
  2.313E+04  4654.      1982.                                     1029900300380 
  2.303E+04  4076.      1751.                                     1029900300381 
  2.292E+04  3512.      1368.                                     1029900300382 
  2.281E+04  3084.      1212.                                     1029900300383 
  2.271E+04  2632.       935.                                     1029900300384 
  2.260E+04  2432.       893.                                     1029900300385 
  2.250E+04  2338.       731.                                     1029900300386 
  2.240E+04  1956.       666.                                     1029900300387 
  2.230E+04  1782.       517.                                     1029900300388 
  2.219E+04  1610.       486.                                     1029900300389 
  2.209E+04  1522.       373.                                     1029900300390 
  2.199E+04  1314.       390.                                     1029900300391 
  2.189E+04  1128.       279.                                     1029900300392 
  2.180E+04  1026.       237.                                     1029900300393 
  2.170E+04   968.       209.                                     1029900300394 
  2.160E+04   838.       214.                                     1029900300395 
  2.150E+04   752.       140.                                     1029900300396 
  2.141E+04   632.       129.                                     1029900300397 
  2.131E+04   510.       114.                                     1029900300398 
  2.122E+04   418.       128.                                     1029900300399 
  2.112E+04   378.        77.                                     1029900300400 
  2.103E+04   422.        55.                                     1029900300401 
  2.094E+04   330.        62.                                     1029900300402 
  2.084E+04   330.        60.                                     1029900300403 
  2.075E+04   348.        72.                                     1029900300404 
  2.066E+04   312.        59.                                     1029900300405 
  2.057E+04   228.        35.                                     1029900300406 
  2.048E+04   256.        47.                                     1029900300407 
  2.039E+04   222.        30.                                     1029900300408 
  2.030E+04   188.        29.                                     1029900300409 
  2.021E+04   212.        43.                                     1029900300410 
  2.013E+04   202.        30.                                     1029900300411 
  2.004E+04   140.        25.                                     1029900300412 
  1.995E+04   136.         5.                                     1029900300413 
  1.987E+04   142.        10.                                     1029900300414 
  1.978E+04   154.        17.                                     1029900300415 
  1.970E+04   142.        18.                                     1029900300416 
  1.961E+04   134.        26.                                     1029900300417 
  1.953E+04   120.        18.                                     1029900300418 
  1.945E+04   126.        13.                                     1029900300419 
  1.936E+04   102.        14.                                     1029900300420 
  1.928E+04    70.        18.                                     1029900300421 
  1.920E+04   100.        22.                                     1029900300422 
  1.912E+04    70.        12.                                     1029900300423 
  1.904E+04    58.        20.                                     1029900300424 
  1.896E+04    78.         4.                                     1029900300425 
  1.888E+04    56.        18.                                     1029900300426 
  1.880E+04    70.         2.                                     1029900300427 
  1.872E+04    56.        14.                                     1029900300428 
  1.864E+04    56.         9.                                     1029900300429 
  1.856E+04    42.        12.                                     1029900300430 
  1.849E+04    64.         4.                                     1029900300431 
  1.841E+04    62.         6.                                     1029900300432 
  1.833E+04    38.                                                1029900300433 
  1.826E+04    36.         8.                                     1029900300434 
  1.818E+04    38.         5.                                     1029900300435 
  1.811E+04    34.         8.                                     1029900300436 
  1.803E+04    48.         9.                                     1029900300437 
  1.796E+04    20.         5.                                     1029900300438 
  1.789E+04    28.        13.                                     1029900300439 
  1.781E+04    24.         4.                                     1029900300440 
  1.774E+04    10.                                                1029900300441 
  1.767E+04    20.                                                1029900300442 
  1.760E+04    38.         5.                                     1029900300443 
  1.753E+04    18.         6.                                     1029900300444 
  1.746E+04    22.         5.                                     1029900300445 
  1.739E+04    34.        12.                                     1029900300446 
  1.732E+04    36.         8.                                     1029900300447 
  1.725E+04    24.                                                1029900300448 
  1.718E+04     8.                                                1029900300449 
  1.711E+04    22.                                                1029900300450 
  1.704E+04    10.                                                1029900300451 
  1.697E+04    24.         6.                                     1029900300452 
  1.691E+04     6.         8.                                     1029900300453 
  1.684E+04     6.         2.                                     1029900300454 
  1.677E+04    20.                                                1029900300455 
  1.671E+04     6.        10.                                     1029900300456 
  1.664E+04    26.         9.                                     1029900300457 
  1.657E+04    18.         9.                                     1029900300458 
  1.651E+04     8.         5.                                     1029900300459 
  1.644E+04     2.         5.                                     1029900300460 
  1.632E+04    12.         5.                                     1029900300461 
  1.625E+04    22.         6.                                     1029900300462 
  1.619E+04     6.         3.                                     1029900300463 
  1.613E+04    16.        16.                                     1029900300464 
  1.606E+04     2.         8.                                     1029900300465 
  1.594E+04    26.         7.                                     1029900300466 
  1.582E+04    14.        11.                                     1029900300467 
  1.576E+04    20.         3.                                     1029900300468 
  1.570E+04     8.         4.                                     1029900300469 
  1.564E+04     8.                                                1029900300470 
  1.558E+04     8.                                                1029900300471 
  1.552E+04    18.                                                1029900300472 
  1.546E+04    10.                                                1029900300473 
  1.534E+04     6.         4.                                     1029900300474 
  1.528E+04                6.                                     1029900300475 
  1.523E+04     6.         4.                                     1029900300476 
  1.517E+04    10.         4.                                     1029900300477 
  1.511E+04     4.                                                1029900300478 
  1.506E+04     6.                                                1029900300479 
  1.500E+04    14.         5.                                     1029900300480 
  1.494E+04     8.         2.                                     1029900300481 
  1.483E+04     8.         8.                                     1029900300482 
  1.478E+04     4.         3.                                     1029900300483 
  1.467E+04     4.        11.                                     1029900300484 
  1.461E+04                5.                                     1029900300485 
  1.456E+04                2.                                     1029900300486 
  1.451E+04    14.         3.                                     1029900300487 
  1.445E+04     8.                                                1029900300488 
  1.440E+04     6.         4.                                     1029900300489 
  1.430E+04    10.         3.                                     1029900300490 
  1.424E+04     8.                                                1029900300491 
  1.419E+04    12.                                                1029900300492 
  1.414E+04                1.                                     1029900300493 
  1.404E+04                4.                                     1029900300494 
  1.399E+04    18.                                                1029900300495 
  1.394E+04     8.         7.                                     1029900300496 
  1.389E+04                3.                                     1029900300497 
  1.379E+04     6.                                                1029900300498 
  1.374E+04    10.                                                1029900300499 
  1.369E+04                7.                                     1029900300500 
  1.364E+04     4.         1.                                     1029900300501 
  1.359E+04     4.                                                1029900300502 
  1.354E+04    10.                                                1029900300503 
  1.349E+04     2.                                                1029900300504 
  1.345E+04     6.         4.                                     1029900300505 
  1.340E+04    12.                                                1029900300506 
  1.335E+04     4.         9.                                     1029900300507 
  1.330E+04                2.                                     1029900300508 
  1.326E+04     8.         3.                                     1029900300509 
  1.321E+04    10.                                                1029900300510 
  1.303E+04     6.         1.                                     1029900300511 
  1.298E+04                3.                                     1029900300512 
  1.294E+04     2.         3.                                     1029900300513 
  1.285E+04                4.                                     1029900300514 
  1.280E+04     8.                                                1029900300515 
  1.267E+04    14.                                                1029900300516 
  1.258E+04    12.                                                1029900300517 
  1.254E+04     4.         6.                                     1029900300518 
  1.250E+04    10.         6.                                     1029900300519 
  1.246E+04    12.         3.                                     1029900300520 
  1.233E+04    16.                                                1029900300521 
  1.229E+04               10.                                     1029900300522 
  1.225E+04     6.         4.                                     1029900300523 
  1.220E+04                6.                                     1029900300524 
  1.216E+04     6.         3.                                     1029900300525 
  1.212E+04     8.                                                1029900300526 
  1.204E+04     2.                                                1029900300527 
  1.200E+04     6.                                                1029900300528 
  1.192E+04     4.         3.                                     1029900300529 
  1.188E+04     6.                                                1029900300530 
  1.184E+04                4.                                     1029900300531 
  1.180E+04     4.                                                1029900300532 
  1.172E+04     2.         8.                                     1029900300533 
  1.169E+04                4.                                     1029900300534 
  1.165E+04     2.         5.                                     1029900300535 
  1.161E+04     4.                                                1029900300536 
  1.157E+04                2.                                     1029900300537 
  1.150E+04     6.                                                1029900300538 
  1.142E+04                1.                                     1029900300539 
  1.138E+04                6.                                     1029900300540 
  1.135E+04     8.         5.                                     1029900300541 
  1.127E+04     6.                                                1029900300542 
  1.124E+04     2.                                                1029900300543 
  1.120E+04     6.         1.                                     1029900300544 
  1.116E+04                4.                                     1029900300545 
  1.109E+04    14.                                                1029900300546 
  1.106E+04     6.         3.                                     1029900300547 
  1.102E+04     4.                                                1029900300548 
  1.099E+04     6.         5.                                     1029900300549 
  1.095E+04     4.                                                1029900300550 
  1.092E+04    10.                                                1029900300551 
  1.081E+04     8.                                                1029900300552 
  1.078E+04     4.         6.                                     1029900300553 
  1.074E+04     4.         3.                                     1029900300554 
  1.068E+04                3.                                     1029900300555 
  1.064E+04     2.         2.                                     1029900300556 
  1.057E+04                1.                                     1029900300557 
  1.054E+04    10.        13.                                     1029900300558 
  1.051E+04                5.                                     1029900300559 
  1.048E+04    18.                                                1029900300560 
  1.044E+04                1.                                     1029900300561 
  1.041E+04                3.                                     1029900300562 
  1.038E+04     4.         7.                                     1029900300563 
  1.035E+04     4.         2.                                     1029900300564 
  1.031E+04     8.                                                1029900300565 
  1.028E+04    10.                                                1029900300566 
  1.025E+04                1.                                     1029900300567 
  1.022E+04                5.                                     1029900300568 
  1.019E+04     8.                                                1029900300569 
  1.016E+04                7.                                     1029900300570 
  1.012E+04                3.                                     1029900300571 
  1.009E+04     4.                                                1029900300572 
  1.006E+04     2.         3.                                     1029900300573 
  1.003E+04    10.         8.                                     1029900300574 
  1.000E+04     6.         1.                                     1029900300575 
  9.970E+03                7.                                     1029900300576 
  9.940E+03    12.         3.                                     1029900300577 
  9.909E+03     6.         9.                                     1029900300578 
  9.879E+03     2.         6.                                     1029900300579 
  9.790E+03                4.                                     1029900300580 
  9.760E+03     8.                                                1029900300581 
  9.731E+03    10.         3.                                     1029900300582 
  9.702E+03                1.                                     1029900300583 
  9.672E+03                6.                                     1029900300584 
  9.614E+03                4.                                     1029900300585 
  9.500E+03     8.         4.                                     1029900300586 
  9.444E+03    18.         1.                                     1029900300587 
  9.416E+03     2.                                                1029900300588 
  9.388E+03                4.                                     1029900300589 
  9.305E+03     2.                                                1029900300590 
  9.278E+03                3.                                     1029900300591 
  9.250E+03     4.         3.                                     1029900300592 
  9.196E+03    18.                                                1029900300593 
  9.169E+03                3.                                     1029900300594 
  9.116E+03     2.         4.                                     1029900300595 
  9.089E+03                3.                                     1029900300596 
  9.063E+03     2.                                                1029900300597 
  8.984E+03                1.                                     1029900300598 
  8.958E+03                2.                                     1029900300599 
  8.932E+03     6.                                                1029900300600 
  8.907E+03     4.                                                1029900300601 
  8.881E+03     6.         3.                                     1029900300602 
  8.855E+03                8.                                     1029900300603 
  8.830E+03     4.         2.                                     1029900300604 
  8.805E+03                2.                                     1029900300605 
  8.779E+03                3.                                     1029900300606 
  8.729E+03                4.                                     1029900300607 
  8.704E+03     2.                                                1029900300608 
  8.655E+03                1.                                     1029900300609 
  8.630E+03     8.         2.                                     1029900300610 
  8.606E+03     8.                                                1029900300611 
  8.509E+03     2.                                                1029900300612 
  8.485E+03    10.                                                1029900300613 
  8.438E+03     6.                                                1029900300614 
  8.414E+03     6.                                                1029900300615 
  8.390E+03     6.                                                1029900300616 
  8.344E+03     6.                                                1029900300617 
  8.320E+03                3.                                     1029900300618 
  8.274E+03                1.                                     1029900300619 
  8.205E+03     6.         1.                                     1029900300620 
  8.160E+03                6.                                     1029900300621 
  8.115E+03     2.         1.                                     1029900300622 
  8.093E+03    12.         3.                                     1029900300623 
  8.071E+03     4.                                                1029900300624 
  8.049E+03    14.                                                1029900300625 
  8.027E+03     4.         6.                                     1029900300626 
  8.005E+03     2.                                                1029900300627 
  7.983E+03    10.         1.                                     1029900300628 
  7.961E+03                5.                                     1029900300629 
  7.918E+03     2.                                                1029900300630 
  7.896E+03                1.                                     1029900300631 
  7.875E+03                3.                                     1029900300632 
  7.854E+03     2.                                                1029900300633 
  7.790E+03     4.         3.                                     1029900300634 
  7.769E+03                4.                                     1029900300635 
  7.748E+03     4.                                                1029900300636 
  7.707E+03     8.                                                1029900300637 
  7.686E+03     2.         3.                                     1029900300638 
  7.665E+03                2.                                     1029900300639 
  7.645E+03     2.         1.                                     1029900300640 
  7.625E+03     4.                                                1029900300641 
  7.604E+03     4.                                                1029900300642 
  7.584E+03     8.         1.                                     1029900300643 
  7.544E+03     4.         1.                                     1029900300644 
  7.524E+03     4.         1.                                     1029900300645 
  7.504E+03                7.                                     1029900300646 
  7.445E+03                4.                                     1029900300647 
  7.405E+03     2.                                                1029900300648 
  7.347E+03     8.         5.                                     1029900300649 
  7.328E+03     4.                                                1029900300650 
  7.290E+03                4.                                     1029900300651 
  7.271E+03     4.                                                1029900300652 
  7.252E+03    10.                                                1029900300653 
  7.196E+03                9.                                     1029900300654 
  7.177E+03     8.                                                1029900300655 
  7.158E+03                5.                                     1029900300656 
  7.140E+03     2.                                                1029900300657 
  7.067E+03     6.                                                1029900300658 
  7.013E+03     4.                                                1029900300659 
  6.995E+03     6.                                                1029900300660 
  6.977E+03     6.         3.                                     1029900300661 
  6.959E+03    10.         2.                                     1029900300662 
  6.941E+03     6.         2.                                     1029900300663 
  6.906E+03     8.         8.                                     1029900300664 
  6.854E+03     2.                                                1029900300665 
  6.836E+03     4.         3.                                     1029900300666 
  6.819E+03     4.         4.                                     1029900300667 
  6.802E+03     2.                                                1029900300668 
  6.785E+03                4.                                     1029900300669 
  6.768E+03     6.         3.                                     1029900300670 
  6.751E+03     2.                                                1029900300671 
  6.734E+03                6.                                     1029900300672 
  6.717E+03     4.         1.                                     1029900300673 
  6.700E+03     6.                                                1029900300674 
  6.683E+03     2.         1.                                     1029900300675 
  6.667E+03     6.         3.                                     1029900300676 
  6.650E+03                3.                                     1029900300677 
  6.617E+03     2.                                                1029900300678 
  6.601E+03     8.                                                1029900300679 
  6.552E+03     4.                                                1029900300680 
  6.519E+03     2.                                                1029900300681 
  6.503E+03     2.                                                1029900300682 
  6.487E+03                6.                                     1029900300683 
  6.471E+03                1.                                     1029900300684 
  6.456E+03     2.                                                1029900300685 
  6.440E+03     2.                                                1029900300686 
  6.424E+03    14.         1.                                     1029900300687 
  6.408E+03     8.         1.                                     1029900300688 
  6.393E+03                1.                                     1029900300689 
  6.377E+03     6.                                                1029900300690 
  6.361E+03                5.                                     1029900300691 
  6.346E+03     6.                                                1029900300692 
  6.330E+03     6.                                                1029900300693 
  6.315E+03     6.                                                1029900300694 
  6.285E+03                2.                                     1029900300695 
  6.269E+03     2.                                                1029900300696 
  6.254E+03                7.                                     1029900300697 
  6.239E+03     4.         5.                                     1029900300698 
  6.209E+03                3.                                     1029900300699 
  6.194E+03     2.         1.                                     1029900300700 
  6.179E+03                2.                                     1029900300701 
  6.164E+03                1.                                     1029900300702 
  6.150E+03    10.                                                1029900300703 
  6.135E+03                2.                                     1029900300704 
  6.077E+03     2.                                                1029900300705 
  6.062E+03     2.         3.                                     1029900300706 
  6.048E+03     4.         6.                                     1029900300707 
  6.019E+03                2.                                     1029900300708 
  6.005E+03     4.         7.                                     1029900300709 
  5.948E+03     8.                                                1029900300710 
  5.934E+03     8.                                                1029900300711 
  5.920E+03    16.         1.                                     1029900300712 
  5.906E+03                5.                                     1029900300713 
  5.893E+03    14.         4.                                     1029900300714 
  5.879E+03                9.                                     1029900300715 
  5.865E+03                1.                                     1029900300716 
  5.838E+03                5.                                     1029900300717 
  5.824E+03     6.         6.                                     1029900300718 
  5.810E+03                5.                                     1029900300719 
  5.783E+03     2.                                                1029900300720 
  5.770E+03                3.                                     1029900300721 
  5.757E+03     6.         1.                                     1029900300722 
ENDDATA            709          0                                 1029900300723 
ENDSUBENT          722          0                                 1029900399999 
ENDENTRY             3          0                                 1029999999999 
