ENTRY            10432   20030408                             00001043200000001 
SUBENT        10432001   20030408                             00001043200100001 
BIB                 12         23                                 1043200100002 
INSTITUTE  (1USAORL)                                              1043200100003 
REFERENCE  (J,PR/C,11,1270,197504)                                1043200100004 
AUTHOR     (R.L.Macklin,J.Halperin,R.R.Winters)                   1043200100005 
TITLE      Gold neutron capture cross section from 3 to 550 keV.  1043200100006 
FACILITY   (LINAC,1USAORL) Oak Ridge Electron Linear Accelerator. 1043200100007 
INC-SPECT  Energy resolution better than 0.2% below 90 keV.       1043200100008 
DETECTOR   (GLASD) 6Li glass detector used as flux monitor.       1043200100009 
MONITOR    (3-LI-6(N,T)2-HE-4,,SIG)                               1043200100010 
            Energy calibrated using 4.9-eV resonance in gold.     1043200100011 
CORRECTION Corrections have been made for average scattering of   1043200100012 
            neutrons, attenuation of gamma-rays, and, above 240   1043200100013 
            keV, inelastic gamma-ray yield.                       1043200100014 
REL-REF    (C,,MACKLIN+,J,NSE,78,110,198105) Correction.          1043200100015 
STATUS     Data taken from private communication, Macklin, 1975/2.1043200100016 
           (APRVD) R.J.Macklin, 1986/9/22.                        1043200100017 
HISTORY    (19741014C)                                            1043200100018 
           (19750226A) Resonance parameters added.                1043200100019 
           (19801205A) STATUS comment added, converted to         1043200100020 
                       REACTION formalism.                        1043200100021 
           (19811218A) BIB correction.                            1043200100022 
           (19860813A) BIB update.                                1043200100023 
           (20030408A) Converted to new date formats, lower case. 1043200100024 
                       BIB update.                                1043200100025 
ENDBIB              23          0                                 1043200100026 
NOCOMMON             0          0                                 1043200100027 
ENDSUBENT           26          0                                 1043200199999 
SUBENT        10432002   20030408                             00001043200200001 
BIB                  5          8                                 1043200200002 
REACTION   (79-AU-197(N,G)79-AU-198,,SIG,,AV)                     1043200200003 
CORRECTION Corrected by a factor of 1.0001 due to error in        1043200200004 
            processing code, see Macklin et al.                   1043200200005 
ERR-ANALYS No information on uncertainties.                       1043200200006 
STATUS     Corrected by NNDC as per Macklin et al.                1043200200007 
HISTORY    (19830607A) Data heading corrected.                    1043200200008 
           (19860813A) Data corrected.                            1043200200009 
           (20030408A) Width of energy bin added (EN-RSL).        1043200200010 
ENDBIB               8          0                                 1043200200011 
COMMON               1          3                                 1043200200012 
EN-RSL                                                            1043200200013 
KEV                                                               1043200200014 
  0.25                                                            1043200200015 
ENDCOMMON            3          0                                 1043200200016 
DATA                 2        400                                 1043200200017 
EN-MEAN    DATA                                                   1043200200018 
KEV        B                                                      1043200200019 
  2.75      2.5751                                                1043200200020 
  3.00      2.0262                                                1043200200021 
  3.25      2.6361                                                1043200200022 
  3.50      2.8480                                                1043200200023 
  3.75      1.9761                                                1043200200024 
  4.00      3.0124                                                1043200200025 
  4.25      2.5820                                                1043200200026 
  4.50      1.7363                                                1043200200027 
  4.75      1.8644                                                1043200200028 
  5.00      1.6024                                                1043200200029 
  5.25      1.5776                                                1043200200030 
  5.50      2.1794                                                1043200200031 
  5.75      1.8531                                                1043200200032 
  6.00      2.0711                                                1043200200033 
  6.25      1.7760                                                1043200200034 
  6.50      1.5784                                                1043200200035 
  6.75      1.6024                                                1043200200036 
  7.00      1.7816                                                1043200200037 
  7.25      1.7208                                                1043200200038 
  7.50      1.6091                                                1043200200039 
  7.75      1.2227                                                1043200200040 
  8.00      1.4965                                                1043200200041 
  8.25      1.3106                                                1043200200042 
  8.50      1.2468                                                1043200200043 
  8.75      1.1710                                                1043200200044 
  9.00      1.2907                                                1043200200045 
  9.25      1.2864                                                1043200200046 
  9.50      0.9815                                                1043200200047 
  9.75      1.0723                                                1043200200048 
 10.00      1.2279                                                1043200200049 
 10.25      1.1269                                                1043200200050 
 10.50      0.9206                                                1043200200051 
 10.75      0.7683                                                1043200200052 
 11.00      1.3169                                                1043200200053 
 11.25      1.4261                                                1043200200054 
 11.50      1.0761                                                1043200200055 
 11.75      1.0958                                                1043200200056 
 12.00      1.1866                                                1043200200057 
 12.25      1.1055                                                1043200200058 
 12.50      0.6909                                                1043200200059 
 12.75      1.0984                                                1043200200060 
 13.00      1.0813                                                1043200200061 
 13.25      0.8470                                                1043200200062 
 13.50      0.9534                                                1043200200063 
 13.75      0.7353                                                1043200200064 
 14.00      1.0030                                                1043200200065 
 14.25      0.7714                                                1043200200066 
 14.50      0.8980                                                1043200200067 
 14.75      0.8938                                                1043200200068 
 15.00      0.7879                                                1043200200069 
 15.25      0.8972                                                1043200200070 
 15.50      0.8872                                                1043200200071 
 15.75      0.8465                                                1043200200072 
 16.00      0.6336                                                1043200200073 
 16.25      0.8841                                                1043200200074 
 16.50      0.8749                                                1043200200075 
 16.75      0.7557                                                1043200200076 
 17.00      0.7452                                                1043200200077 
 17.25      0.9721                                                1043200200078 
 17.50      0.7355                                                1043200200079 
 17.75      0.7815                                                1043200200080 
 18.00      0.7874                                                1043200200081 
 18.25      0.8349                                                1043200200082 
 18.50      0.8060                                                1043200200083 
 18.75      0.7661                                                1043200200084 
 19.00      0.7953                                                1043200200085 
 19.25      0.6208                                                1043200200086 
 19.50      0.5625                                                1043200200087 
 19.75      0.5790                                                1043200200088 
 20.00      0.7725                                                1043200200089 
 20.25      0.6520                                                1043200200090 
 20.50      0.7119                                                1043200200091 
 20.75      0.6758                                                1043200200092 
 21.00      0.6402                                                1043200200093 
 21.25      0.7048                                                1043200200094 
 21.50      0.6512                                                1043200200095 
 21.75      0.5957                                                1043200200096 
 22.00      0.6980                                                1043200200097 
 22.25      0.4537                                                1043200200098 
 22.50      0.6719                                                1043200200099 
 22.75      0.6017                                                1043200200100 
 23.00      0.5631                                                1043200200101 
 23.25      0.5822                                                1043200200102 
 23.50      0.6374                                                1043200200103 
 23.75      0.6265                                                1043200200104 
 24.00      0.5823                                                1043200200105 
 24.25      0.7015                                                1043200200106 
 24.50      0.6268                                                1043200200107 
 24.75      0.5156                                                1043200200108 
 25.00      0.6034                                                1043200200109 
 25.25      0.7600                                                1043200200110 
 25.50      0.6193                                                1043200200111 
 25.75      0.5528                                                1043200200112 
 26.00      0.5556                                                1043200200113 
 26.25      0.5117                                                1043200200114 
 26.50      0.6133                                                1043200200115 
 26.75      0.6012                                                1043200200116 
 27.00      0.6540                                                1043200200117 
 27.25      0.6381                                                1043200200118 
 27.50      0.6035                                                1043200200119 
 27.75      0.6016                                                1043200200120 
 28.00      0.6296                                                1043200200121 
 28.25      0.5912                                                1043200200122 
 28.50      0.7330                                                1043200200123 
 28.75      0.6160                                                1043200200124 
 29.00      0.6107                                                1043200200125 
 29.25      0.5202                                                1043200200126 
 29.50      0.6757                                                1043200200127 
 29.75      0.4833                                                1043200200128 
 30.00      0.6524                                                1043200200129 
 30.25      0.6624                                                1043200200130 
 30.50      0.5333                                                1043200200131 
 30.75      0.5734                                                1043200200132 
 31.00      0.5395                                                1043200200133 
 31.25      0.5036                                                1043200200134 
 31.50      0.5234                                                1043200200135 
 31.75      0.5738                                                1043200200136 
 32.00      0.4921                                                1043200200137 
 32.25      0.5534                                                1043200200138 
 32.50      0.5357                                                1043200200139 
 32.75      0.5384                                                1043200200140 
 33.00      0.5537                                                1043200200141 
 33.25      0.5377                                                1043200200142 
 33.50      0.5659                                                1043200200143 
 33.75      0.5193                                                1043200200144 
 34.00      0.4631                                                1043200200145 
 34.25      0.4582                                                1043200200146 
 34.50      0.4879                                                1043200200147 
 34.75      0.5170                                                1043200200148 
 35.00      0.5033                                                1043200200149 
 35.25      0.4975                                                1043200200150 
 35.50      0.5408                                                1043200200151 
 35.75      0.5111                                                1043200200152 
 36.00      0.4912                                                1043200200153 
 36.25      0.4726                                                1043200200154 
 36.50      0.5014                                                1043200200155 
 36.75      0.5283                                                1043200200156 
 37.00      0.4452                                                1043200200157 
 37.25      0.5625                                                1043200200158 
 37.50      0.4700                                                1043200200159 
 37.75      0.5628                                                1043200200160 
 38.00      0.5669                                                1043200200161 
 38.25      0.5639                                                1043200200162 
 38.50      0.5656                                                1043200200163 
 38.75      0.4979                                                1043200200164 
 39.00      0.5044                                                1043200200165 
 39.25      0.5051                                                1043200200166 
 39.50      0.5907                                                1043200200167 
 39.75      0.4869                                                1043200200168 
 40.00      0.5425                                                1043200200169 
 40.25      0.4833                                                1043200200170 
 40.50      0.5024                                                1043200200171 
 40.75      0.5111                                                1043200200172 
 41.00      0.4937                                                1043200200173 
 41.25      0.4741                                                1043200200174 
 41.50      0.5525                                                1043200200175 
 41.75      0.4658                                                1043200200176 
 42.00      0.4262                                                1043200200177 
 42.25      0.4668                                                1043200200178 
 42.50      0.4789                                                1043200200179 
 42.75      0.3873                                                1043200200180 
 43.00      0.4633                                                1043200200181 
 43.25      0.5314                                                1043200200182 
 43.50      0.4552                                                1043200200183 
 43.75      0.4430                                                1043200200184 
 44.00      0.3758                                                1043200200185 
 44.25      0.3977                                                1043200200186 
 44.50      0.4509                                                1043200200187 
 44.75      0.5116                                                1043200200188 
 45.00      0.4527                                                1043200200189 
 45.25      0.3893                                                1043200200190 
 45.50      0.4359                                                1043200200191 
 45.75      0.4491                                                1043200200192 
 46.00      0.3918                                                1043200200193 
 46.25      0.4767                                                1043200200194 
 46.50      0.4055                                                1043200200195 
 46.75      0.5017                                                1043200200196 
 47.00      0.4649                                                1043200200197 
 47.25      0.4543                                                1043200200198 
 47.50      0.4607                                                1043200200199 
 47.75      0.4148                                                1043200200200 
 48.00      0.4853                                                1043200200201 
 48.25      0.4768                                                1043200200202 
 48.50      0.3952                                                1043200200203 
 48.75      0.3652                                                1043200200204 
 49.00      0.3811                                                1043200200205 
 49.25      0.4145                                                1043200200206 
 49.50      0.4559                                                1043200200207 
 49.75      0.4226                                                1043200200208 
 50.00      0.4238                                                1043200200209 
 50.25      0.4002                                                1043200200210 
 50.50      0.5138                                                1043200200211 
 50.75      0.4394                                                1043200200212 
 51.00      0.4883                                                1043200200213 
 51.25      0.4421                                                1043200200214 
 51.50      0.4297                                                1043200200215 
 51.75      0.4168                                                1043200200216 
 52.00      0.3629                                                1043200200217 
 52.25      0.4436                                                1043200200218 
 52.50      0.4877                                                1043200200219 
 52.75      0.3778                                                1043200200220 
 53.00      0.4474                                                1043200200221 
 53.25      0.4263                                                1043200200222 
 53.50      0.3885                                                1043200200223 
 53.75      0.4618                                                1043200200224 
 54.00      0.4209                                                1043200200225 
 54.25      0.4197                                                1043200200226 
 54.50      0.4578                                                1043200200227 
 54.75      0.3876                                                1043200200228 
 55.00      0.4299                                                1043200200229 
 55.25      0.4239                                                1043200200230 
 55.50      0.4580                                                1043200200231 
 55.75      0.4211                                                1043200200232 
 56.00      0.4054                                                1043200200233 
 56.25      0.4606                                                1043200200234 
 56.50      0.4540                                                1043200200235 
 56.75      0.3792                                                1043200200236 
 57.00      0.3880                                                1043200200237 
 57.25      0.3685                                                1043200200238 
 57.50      0.3765                                                1043200200239 
 57.75      0.4105                                                1043200200240 
 58.00      0.4135                                                1043200200241 
 58.25      0.4153                                                1043200200242 
 58.50      0.4225                                                1043200200243 
 58.75      0.3757                                                1043200200244 
 59.00      0.4030                                                1043200200245 
 59.25      0.3894                                                1043200200246 
 59.50      0.4049                                                1043200200247 
 59.75      0.4727                                                1043200200248 
 60.00      0.3899                                                1043200200249 
 60.25      0.3790                                                1043200200250 
 60.50      0.4309                                                1043200200251 
 60.75      0.3997                                                1043200200252 
 61.00      0.3714                                                1043200200253 
 61.25      0.3555                                                1043200200254 
 61.50      0.4084                                                1043200200255 
 61.75      0.3664                                                1043200200256 
 62.00      0.3564                                                1043200200257 
 62.25      0.3895                                                1043200200258 
 62.50      0.4036                                                1043200200259 
 62.75      0.3886                                                1043200200260 
 63.00      0.4042                                                1043200200261 
 63.25      0.4147                                                1043200200262 
 63.50      0.3824                                                1043200200263 
 63.75      0.3497                                                1043200200264 
 64.00      0.3475                                                1043200200265 
 64.25      0.3961                                                1043200200266 
 64.50      0.3707                                                1043200200267 
 64.75      0.3729                                                1043200200268 
 65.00      0.4066                                                1043200200269 
 65.25      0.3450                                                1043200200270 
 65.50      0.3684                                                1043200200271 
 65.75      0.3869                                                1043200200272 
 66.00      0.4154                                                1043200200273 
 66.25      0.3611                                                1043200200274 
 66.50      0.3712                                                1043200200275 
 66.75      0.3574                                                1043200200276 
 67.00      0.4277                                                1043200200277 
 67.25      0.4335                                                1043200200278 
 67.50      0.3657                                                1043200200279 
 67.75      0.3946                                                1043200200280 
 68.00      0.4201                                                1043200200281 
 68.25      0.3974                                                1043200200282 
 68.50      0.4174                                                1043200200283 
 68.75      0.3951                                                1043200200284 
 69.00      0.3756                                                1043200200285 
 69.25      0.3760                                                1043200200286 
 69.50      0.3156                                                1043200200287 
 69.75      0.3534                                                1043200200288 
 70.00      0.3628                                                1043200200289 
 70.25      0.3723                                                1043200200290 
 70.50      0.3976                                                1043200200291 
 70.75      0.3876                                                1043200200292 
 71.00      0.3655                                                1043200200293 
 71.25      0.3685                                                1043200200294 
 71.50      0.3451                                                1043200200295 
 71.75      0.3835                                                1043200200296 
 72.00      0.3691                                                1043200200297 
 72.25      0.3700                                                1043200200298 
 72.50      0.3863                                                1043200200299 
 72.75      0.3956                                                1043200200300 
 73.00      0.4075                                                1043200200301 
 73.25      0.3616                                                1043200200302 
 73.50      0.3752                                                1043200200303 
 73.75      0.3647                                                1043200200304 
 74.00      0.3501                                                1043200200305 
 74.25      0.3537                                                1043200200306 
 74.50      0.3642                                                1043200200307 
 74.75      0.4301                                                1043200200308 
 75.00      0.3988                                                1043200200309 
 75.25      0.3702                                                1043200200310 
 75.50      0.3955                                                1043200200311 
 75.75      0.3789                                                1043200200312 
 76.00      0.3639                                                1043200200313 
 76.25      0.3358                                                1043200200314 
 76.50      0.3020                                                1043200200315 
 76.75      0.3702                                                1043200200316 
 77.00      0.3938                                                1043200200317 
 77.25      0.3382                                                1043200200318 
 77.50      0.3397                                                1043200200319 
 77.75      0.3726                                                1043200200320 
 78.00      0.3181                                                1043200200321 
 78.25      0.3209                                                1043200200322 
 78.50      0.3238                                                1043200200323 
 78.75      0.3530                                                1043200200324 
 79.00      0.3465                                                1043200200325 
 79.25      0.3627                                                1043200200326 
 79.50      0.3500                                                1043200200327 
 79.75      0.3451                                                1043200200328 
 80.00      0.3275                                                1043200200329 
 80.25      0.3440                                                1043200200330 
 80.50      0.2926                                                1043200200331 
 80.75      0.3145                                                1043200200332 
 81.00      0.3470                                                1043200200333 
 81.25      0.3409                                                1043200200334 
 81.50      0.3313                                                1043200200335 
 81.75      0.3729                                                1043200200336 
 82.00      0.3855                                                1043200200337 
 82.25      0.3505                                                1043200200338 
 82.50      0.3456                                                1043200200339 
 82.75      0.3281                                                1043200200340 
 83.00      0.3208                                                1043200200341 
 83.25      0.2853                                                1043200200342 
 83.50      0.3384                                                1043200200343 
 83.75      0.3526                                                1043200200344 
 84.00      0.3412                                                1043200200345 
 84.25      0.3172                                                1043200200346 
 84.50      0.2890                                                1043200200347 
 84.75      0.3154                                                1043200200348 
 85.00      0.3200                                                1043200200349 
 85.25      0.3562                                                1043200200350 
 85.50      0.3074                                                1043200200351 
 85.75      0.3271                                                1043200200352 
 86.00      0.2821                                                1043200200353 
 86.25      0.2997                                                1043200200354 
 86.50      0.3213                                                1043200200355 
 86.75      0.3363                                                1043200200356 
 87.00      0.2855                                                1043200200357 
 87.25      0.2787                                                1043200200358 
 87.50      0.3238                                                1043200200359 
 87.75      0.3257                                                1043200200360 
 88.00      0.3163                                                1043200200361 
 88.25      0.2967                                                1043200200362 
 88.50      0.2828                                                1043200200363 
 88.75      0.3124                                                1043200200364 
 89.00      0.3327                                                1043200200365 
 89.25      0.3028                                                1043200200366 
 89.50      0.3150                                                1043200200367 
 89.75      0.3417                                                1043200200368 
 90.00      0.3248                                                1043200200369 
 90.25      0.3186                                                1043200200370 
 90.50      0.3160                                                1043200200371 
 90.75      0.2869                                                1043200200372 
 91.00      0.2947                                                1043200200373 
 91.25      0.3347                                                1043200200374 
 91.50      0.3134                                                1043200200375 
 91.75      0.3273                                                1043200200376 
 92.00      0.2976                                                1043200200377 
 92.25      0.3106                                                1043200200378 
 92.50      0.3038                                                1043200200379 
 92.75      0.3178                                                1043200200380 
 93.00      0.3221                                                1043200200381 
 93.25      0.3256                                                1043200200382 
 93.50      0.3026                                                1043200200383 
 93.75      0.3198                                                1043200200384 
 94.00      0.2978                                                1043200200385 
 94.25      0.3397                                                1043200200386 
 94.50      0.3432                                                1043200200387 
 94.75      0.3208                                                1043200200388 
 95.00      0.3812                                                1043200200389 
 95.25      0.3486                                                1043200200390 
 95.50      0.3220                                                1043200200391 
 95.75      0.2985                                                1043200200392 
 96.00      0.3078                                                1043200200393 
 96.25      0.3144                                                1043200200394 
 96.50      0.3053                                                1043200200395 
 96.75      0.2804                                                1043200200396 
 97.00      0.2975                                                1043200200397 
 97.25      0.3225                                                1043200200398 
 97.50      0.3106                                                1043200200399 
 97.75      0.3186                                                1043200200400 
 98.00      0.3117                                                1043200200401 
 98.25      0.2795                                                1043200200402 
 98.50      0.2756                                                1043200200403 
 98.75      0.3201                                                1043200200404 
 99.00      0.3247                                                1043200200405 
 99.25      0.3282                                                1043200200406 
 99.50      0.2956                                                1043200200407 
 99.75      0.2987                                                1043200200408 
100.00      0.3110                                                1043200200409 
100.25      0.2992                                                1043200200410 
100.50      0.3292                                                1043200200411 
100.75      0.3196                                                1043200200412 
101.00      0.3363                                                1043200200413 
101.25      0.3281                                                1043200200414 
101.50      0.3323                                                1043200200415 
101.75      0.3173                                                1043200200416 
102.00      0.3396                                                1043200200417 
102.25      0.3189                                                1043200200418 
102.50      0.3284                                                1043200200419 
ENDDATA            402          0                                 1043200200420 
ENDSUBENT          419          0                                 1043200299999 
SUBENT        10432003   20030408                             00001043200300001 
BIB                  5          7                                 1043200300002 
REACTION   (79-AU-197(N,G)79-AU-198,,SIG,,AV)                     1043200300003 
CORRECTION Corrected by a factor of 1.0001 due to error in        1043200300004 
            processing code, see Macklin et al.                   1043200300005 
ERR-ANALYS No information on uncertainties.                       1043200300006 
STATUS     Corrected by NNDC as per Macklin et al.                1043200300007 
HISTORY    (19830607A) Data heading corrected.                    1043200300008 
           (20030408A) Width of energy bin added (EN-RSL).        1043200300009 
ENDBIB               7          0                                 1043200300010 
COMMON               1          3                                 1043200300011 
EN-RSL                                                            1043200300012 
KEV                                                               1043200300013 
  0.50                                                            1043200300014 
ENDCOMMON            3          0                                 1043200300015 
DATA                 2        450                                 1043200300016 
EN-MEAN    DATA                                                   1043200300017 
KEV        B                                                      1043200300018 
101.00     0.3304                                                 1043200300019 
102.00     0.3252                                                 1043200300020 
103.00     0.3077                                                 1043200300021 
104.00     0.3286                                                 1043200300022 
105.00     0.3270                                                 1043200300023 
106.00     0.3105                                                 1043200300024 
107.00     0.3145                                                 1043200300025 
108.00     0.3140                                                 1043200300026 
109.00     0.2924                                                 1043200300027 
110.00     0.3146                                                 1043200300028 
111.00     0.3144                                                 1043200300029 
112.00     0.3216                                                 1043200300030 
113.00     0.3113                                                 1043200300031 
114.00     0.3151                                                 1043200300032 
115.00     0.2845                                                 1043200300033 
116.00     0.2808                                                 1043200300034 
117.00     0.2867                                                 1043200300035 
118.00     0.3002                                                 1043200300036 
119.00     0.2757                                                 1043200300037 
120.00     0.2888                                                 1043200300038 
121.00     0.3004                                                 1043200300039 
122.00     0.2852                                                 1043200300040 
123.00     0.2983                                                 1043200300041 
124.00     0.3016                                                 1043200300042 
125.00     0.2962                                                 1043200300043 
126.00     0.2947                                                 1043200300044 
127.00     0.2947                                                 1043200300045 
128.00     0.2862                                                 1043200300046 
129.00     0.3021                                                 1043200300047 
130.00     0.2941                                                 1043200300048 
131.00     0.2858                                                 1043200300049 
132.00     0.3007                                                 1043200300050 
133.00     0.3062                                                 1043200300051 
134.00     0.2852                                                 1043200300052 
135.00     0.2930                                                 1043200300053 
136.00     0.2804                                                 1043200300054 
137.00     0.2919                                                 1043200300055 
138.00     0.2793                                                 1043200300056 
139.00     0.2678                                                 1043200300057 
140.00     0.2861                                                 1043200300058 
141.00     0.2863                                                 1043200300059 
142.00     0.2952                                                 1043200300060 
143.00     0.2880                                                 1043200300061 
144.00     0.2723                                                 1043200300062 
145.00     0.2813                                                 1043200300063 
146.00     0.2718                                                 1043200300064 
147.00     0.2639                                                 1043200300065 
148.00     0.2746                                                 1043200300066 
149.00     0.2784                                                 1043200300067 
150.00     0.2750                                                 1043200300068 
151.00     0.2624                                                 1043200300069 
152.00     0.2855                                                 1043200300070 
153.00     0.2789                                                 1043200300071 
154.00     0.2738                                                 1043200300072 
155.00     0.2727                                                 1043200300073 
156.00     0.2676                                                 1043200300074 
157.00     0.2952                                                 1043200300075 
158.00     0.2694                                                 1043200300076 
159.00     0.2688                                                 1043200300077 
160.00     0.2724                                                 1043200300078 
161.00     0.2663                                                 1043200300079 
162.00     0.2605                                                 1043200300080 
163.00     0.2883                                                 1043200300081 
164.00     0.2668                                                 1043200300082 
165.00     0.2711                                                 1043200300083 
166.00     0.2743                                                 1043200300084 
167.00     0.2940                                                 1043200300085 
168.00     0.2796                                                 1043200300086 
169.00     0.2858                                                 1043200300087 
170.00     0.2668                                                 1043200300088 
171.00     0.2767                                                 1043200300089 
172.00     0.2695                                                 1043200300090 
173.00     0.2793                                                 1043200300091 
174.00     0.2673                                                 1043200300092 
175.00     0.2609                                                 1043200300093 
176.00     0.2500                                                 1043200300094 
177.00     0.2619                                                 1043200300095 
178.00     0.2628                                                 1043200300096 
179.00     0.2496                                                 1043200300097 
180.00     0.2539                                                 1043200300098 
181.00     0.2740                                                 1043200300099 
182.00     0.2782                                                 1043200300100 
183.00     0.2796                                                 1043200300101 
184.00     0.2583                                                 1043200300102 
185.00     0.2560                                                 1043200300103 
186.00     0.2582                                                 1043200300104 
187.00     0.2396                                                 1043200300105 
188.00     0.2653                                                 1043200300106 
189.00     0.2708                                                 1043200300107 
190.00     0.2450                                                 1043200300108 
191.00     0.2545                                                 1043200300109 
192.00     0.2553                                                 1043200300110 
193.00     0.2555                                                 1043200300111 
194.00     0.2663                                                 1043200300112 
195.00     0.2677                                                 1043200300113 
196.00     0.2676                                                 1043200300114 
197.00     0.2593                                                 1043200300115 
198.00     0.2654                                                 1043200300116 
199.00     0.2609                                                 1043200300117 
200.00     0.2556                                                 1043200300118 
201.00     0.2830                                                 1043200300119 
202.00     0.2591                                                 1043200300120 
203.00     0.2616                                                 1043200300121 
204.00     0.2608                                                 1043200300122 
205.00     0.2573                                                 1043200300123 
206.00     0.2524                                                 1043200300124 
207.00     0.2299                                                 1043200300125 
208.00     0.2419                                                 1043200300126 
209.00     0.2518                                                 1043200300127 
210.00     0.2420                                                 1043200300128 
211.00     0.2405                                                 1043200300129 
212.00     0.2200                                                 1043200300130 
213.00     0.2460                                                 1043200300131 
214.00     0.2564                                                 1043200300132 
215.00     0.2518                                                 1043200300133 
216.00     0.2432                                                 1043200300134 
217.00     0.2305                                                 1043200300135 
218.00     0.2502                                                 1043200300136 
219.00     0.2308                                                 1043200300137 
220.00     0.2267                                                 1043200300138 
221.00     0.2230                                                 1043200300139 
222.00     0.2448                                                 1043200300140 
223.00     0.2340                                                 1043200300141 
224.00     0.2329                                                 1043200300142 
225.00     0.2294                                                 1043200300143 
226.00     0.2299                                                 1043200300144 
227.00     0.2366                                                 1043200300145 
228.00     0.2492                                                 1043200300146 
229.00     0.2379                                                 1043200300147 
230.00     0.2376                                                 1043200300148 
231.00     0.2424                                                 1043200300149 
232.00     0.2277                                                 1043200300150 
233.00     0.2239                                                 1043200300151 
234.00     0.2496                                                 1043200300152 
235.00     0.2262                                                 1043200300153 
236.00     0.2222                                                 1043200300154 
237.00     0.2168                                                 1043200300155 
238.00     0.2254                                                 1043200300156 
239.00     0.2244                                                 1043200300157 
240.00     0.2208                                                 1043200300158 
241.00     0.2199                                                 1043200300159 
242.00     0.2401                                                 1043200300160 
243.00     0.2394                                                 1043200300161 
244.00     0.2343                                                 1043200300162 
245.00     0.2358                                                 1043200300163 
246.00     0.2040                                                 1043200300164 
247.00     0.2204                                                 1043200300165 
248.00     0.2293                                                 1043200300166 
249.00     0.2365                                                 1043200300167 
250.00     0.2323                                                 1043200300168 
251.00     0.2299                                                 1043200300169 
252.00     0.2370                                                 1043200300170 
253.00     0.2196                                                 1043200300171 
254.00     0.2200                                                 1043200300172 
255.00     0.2419                                                 1043200300173 
256.00     0.2378                                                 1043200300174 
257.00     0.2186                                                 1043200300175 
258.00     0.2298                                                 1043200300176 
259.00     0.2422                                                 1043200300177 
260.00     0.2349                                                 1043200300178 
261.00     0.2334                                                 1043200300179 
262.00     0.2375                                                 1043200300180 
263.00     0.2412                                                 1043200300181 
264.00     0.2317                                                 1043200300182 
265.00     0.2317                                                 1043200300183 
266.00     0.2332                                                 1043200300184 
267.00     0.2277                                                 1043200300185 
268.00     0.2246                                                 1043200300186 
269.00     0.2314                                                 1043200300187 
270.00     0.2200                                                 1043200300188 
271.00     0.2099                                                 1043200300189 
272.00     0.2230                                                 1043200300190 
273.00     0.2449                                                 1043200300191 
274.00     0.2288                                                 1043200300192 
275.00     0.2369                                                 1043200300193 
276.00     0.2467                                                 1043200300194 
277.00     0.2438                                                 1043200300195 
278.00     0.2266                                                 1043200300196 
279.00     0.2101                                                 1043200300197 
280.00     0.2172                                                 1043200300198 
281.00     0.2203                                                 1043200300199 
282.00     0.2180                                                 1043200300200 
283.00     0.2017                                                 1043200300201 
284.00     0.2019                                                 1043200300202 
285.00     0.2054                                                 1043200300203 
286.00     0.2060                                                 1043200300204 
287.00     0.1918                                                 1043200300205 
288.00     0.1972                                                 1043200300206 
289.00     0.2273                                                 1043200300207 
290.00     0.1969                                                 1043200300208 
291.00     0.1802                                                 1043200300209 
292.00     0.1930                                                 1043200300210 
293.00     0.2037                                                 1043200300211 
294.00     0.1665                                                 1043200300212 
295.00     0.1961                                                 1043200300213 
296.00     0.1836                                                 1043200300214 
297.00     0.1797                                                 1043200300215 
298.00     0.1947                                                 1043200300216 
299.00     0.1941                                                 1043200300217 
300.00     0.2019                                                 1043200300218 
301.00     0.1951                                                 1043200300219 
302.00     0.2025                                                 1043200300220 
303.00     0.1942                                                 1043200300221 
304.00     0.1926                                                 1043200300222 
305.00     0.1912                                                 1043200300223 
306.00     0.1846                                                 1043200300224 
307.00     0.1983                                                 1043200300225 
308.00     0.1915                                                 1043200300226 
309.00     0.1734                                                 1043200300227 
310.00     0.1878                                                 1043200300228 
311.00     0.2009                                                 1043200300229 
312.00     0.2014                                                 1043200300230 
313.00     0.1960                                                 1043200300231 
314.00     0.2085                                                 1043200300232 
315.00     0.1869                                                 1043200300233 
316.00     0.1867                                                 1043200300234 
317.00     0.1978                                                 1043200300235 
318.00     0.1818                                                 1043200300236 
319.00     0.1757                                                 1043200300237 
320.00     0.1784                                                 1043200300238 
321.00     0.1714                                                 1043200300239 
322.00     0.1912                                                 1043200300240 
323.00     0.1878                                                 1043200300241 
324.00     0.1762                                                 1043200300242 
325.00     0.1765                                                 1043200300243 
326.00     0.1851                                                 1043200300244 
327.00     0.1821                                                 1043200300245 
328.00     0.1981                                                 1043200300246 
329.00     0.1799                                                 1043200300247 
330.00     0.1886                                                 1043200300248 
331.00     0.1784                                                 1043200300249 
332.00     0.1832                                                 1043200300250 
333.00     0.1793                                                 1043200300251 
334.00     0.1775                                                 1043200300252 
335.00     0.1736                                                 1043200300253 
336.00     0.1730                                                 1043200300254 
337.00     0.1751                                                 1043200300255 
338.00     0.1687                                                 1043200300256 
339.00     0.2012                                                 1043200300257 
340.00     0.1919                                                 1043200300258 
341.00     0.1591                                                 1043200300259 
342.00     0.1784                                                 1043200300260 
343.00     0.1990                                                 1043200300261 
344.00     0.1761                                                 1043200300262 
345.00     0.1676                                                 1043200300263 
346.00     0.1656                                                 1043200300264 
347.00     0.1848                                                 1043200300265 
348.00     0.1771                                                 1043200300266 
349.00     0.1789                                                 1043200300267 
350.00     0.1546                                                 1043200300268 
351.00     0.1649                                                 1043200300269 
352.00     0.1799                                                 1043200300270 
353.00     0.1831                                                 1043200300271 
354.00     0.1801                                                 1043200300272 
355.00     0.1892                                                 1043200300273 
356.00     0.1754                                                 1043200300274 
357.00     0.1661                                                 1043200300275 
358.00     0.1703                                                 1043200300276 
359.00     0.1694                                                 1043200300277 
360.00     0.1795                                                 1043200300278 
361.00     0.1879                                                 1043200300279 
362.00     0.1683                                                 1043200300280 
363.00     0.1743                                                 1043200300281 
364.00     0.1566                                                 1043200300282 
365.00     0.1618                                                 1043200300283 
366.00     0.1681                                                 1043200300284 
367.00     0.1836                                                 1043200300285 
368.00     0.1648                                                 1043200300286 
369.00     0.1640                                                 1043200300287 
370.00     0.1695                                                 1043200300288 
371.00     0.1592                                                 1043200300289 
372.00     0.1621                                                 1043200300290 
373.00     0.1594                                                 1043200300291 
374.00     0.1567                                                 1043200300292 
375.00     0.1584                                                 1043200300293 
376.00     0.1514                                                 1043200300294 
377.00     0.1808                                                 1043200300295 
378.00     0.1701                                                 1043200300296 
379.00     0.1637                                                 1043200300297 
380.00     0.1485                                                 1043200300298 
381.00     0.1513                                                 1043200300299 
382.00     0.1582                                                 1043200300300 
383.00     0.1715                                                 1043200300301 
384.00     0.1568                                                 1043200300302 
385.00     0.1608                                                 1043200300303 
386.00     0.1668                                                 1043200300304 
387.00     0.1487                                                 1043200300305 
388.00     0.1716                                                 1043200300306 
389.00     0.1388                                                 1043200300307 
390.00     0.1478                                                 1043200300308 
391.00     0.1610                                                 1043200300309 
392.00     0.1649                                                 1043200300310 
393.00     0.1659                                                 1043200300311 
394.00     0.1490                                                 1043200300312 
395.00     0.1545                                                 1043200300313 
396.00     0.1523                                                 1043200300314 
397.00     0.1611                                                 1043200300315 
398.00     0.1569                                                 1043200300316 
399.00     0.1578                                                 1043200300317 
400.00     0.1499                                                 1043200300318 
401.00     0.1645                                                 1043200300319 
402.00     0.1699                                                 1043200300320 
403.00     0.1669                                                 1043200300321 
404.00     0.1598                                                 1043200300322 
405.00     0.1564                                                 1043200300323 
406.00     0.1549                                                 1043200300324 
407.00     0.1611                                                 1043200300325 
408.00     0.1751                                                 1043200300326 
409.00     0.1422                                                 1043200300327 
410.00     0.1531                                                 1043200300328 
411.00     0.1733                                                 1043200300329 
412.00     0.1586                                                 1043200300330 
413.00     0.1561                                                 1043200300331 
414.00     0.1532                                                 1043200300332 
415.00     0.1466                                                 1043200300333 
416.00     0.1581                                                 1043200300334 
417.00     0.1670                                                 1043200300335 
418.00     0.1565                                                 1043200300336 
419.00     0.1542                                                 1043200300337 
420.00     0.1505                                                 1043200300338 
421.00     0.1537                                                 1043200300339 
422.00     0.1353                                                 1043200300340 
423.00     0.1584                                                 1043200300341 
424.00     0.1576                                                 1043200300342 
425.00     0.1304                                                 1043200300343 
426.00     0.1452                                                 1043200300344 
427.00     0.1601                                                 1043200300345 
428.00     0.1485                                                 1043200300346 
429.00     0.1302                                                 1043200300347 
430.00     0.1358                                                 1043200300348 
431.00     0.1579                                                 1043200300349 
432.00     0.1488                                                 1043200300350 
433.00     0.1469                                                 1043200300351 
434.00     0.1331                                                 1043200300352 
435.00     0.1338                                                 1043200300353 
436.00     0.1574                                                 1043200300354 
437.00     0.1312                                                 1043200300355 
438.00     0.1571                                                 1043200300356 
439.00     0.1493                                                 1043200300357 
440.00     0.1373                                                 1043200300358 
441.00     0.1380                                                 1043200300359 
442.00     0.1380                                                 1043200300360 
443.00     0.1487                                                 1043200300361 
444.00     0.1453                                                 1043200300362 
445.00     0.1299                                                 1043200300363 
446.00     0.1362                                                 1043200300364 
447.00     0.1231                                                 1043200300365 
448.00     0.1516                                                 1043200300366 
449.00     0.1589                                                 1043200300367 
450.00     0.1424                                                 1043200300368 
451.00     0.1566                                                 1043200300369 
452.00     0.1095                                                 1043200300370 
453.00     0.1331                                                 1043200300371 
454.00     0.1570                                                 1043200300372 
455.00     0.1644                                                 1043200300373 
456.00     0.1308                                                 1043200300374 
457.00     0.1474                                                 1043200300375 
458.00     0.1517                                                 1043200300376 
459.00     0.1357                                                 1043200300377 
460.00     0.1461                                                 1043200300378 
461.00     0.1238                                                 1043200300379 
462.00     0.1265                                                 1043200300380 
463.00     0.1364                                                 1043200300381 
464.00     0.1507                                                 1043200300382 
465.00     0.1350                                                 1043200300383 
466.00     0.1387                                                 1043200300384 
467.00     0.1451                                                 1043200300385 
468.00     0.1471                                                 1043200300386 
469.00     0.1367                                                 1043200300387 
470.00     0.1317                                                 1043200300388 
471.00     0.1453                                                 1043200300389 
472.00     0.1379                                                 1043200300390 
473.00     0.1509                                                 1043200300391 
474.00     0.1247                                                 1043200300392 
475.00     0.1451                                                 1043200300393 
476.00     0.1361                                                 1043200300394 
477.00     0.1340                                                 1043200300395 
478.00     0.1270                                                 1043200300396 
479.00     0.1438                                                 1043200300397 
480.00     0.1296                                                 1043200300398 
481.00     0.1250                                                 1043200300399 
482.00     0.1339                                                 1043200300400 
483.00     0.1520                                                 1043200300401 
484.00     0.1355                                                 1043200300402 
485.00     0.1396                                                 1043200300403 
486.00     0.1456                                                 1043200300404 
487.00     0.1145                                                 1043200300405 
488.00     0.1471                                                 1043200300406 
489.00     0.1384                                                 1043200300407 
490.00     0.1274                                                 1043200300408 
491.00     0.1493                                                 1043200300409 
492.00     0.1460                                                 1043200300410 
493.00     0.1358                                                 1043200300411 
494.00     0.1520                                                 1043200300412 
495.00     0.1365                                                 1043200300413 
496.00     0.1382                                                 1043200300414 
497.00     0.1338                                                 1043200300415 
498.00     0.1423                                                 1043200300416 
499.00     0.1486                                                 1043200300417 
500.00     0.1468                                                 1043200300418 
501.00     0.1182                                                 1043200300419 
502.00     0.1362                                                 1043200300420 
503.00     0.1458                                                 1043200300421 
504.00     0.1366                                                 1043200300422 
505.00     0.1369                                                 1043200300423 
506.00     0.1290                                                 1043200300424 
507.00     0.1385                                                 1043200300425 
508.00     0.1486                                                 1043200300426 
509.00     0.1282                                                 1043200300427 
510.00     0.1303                                                 1043200300428 
511.00     0.1539                                                 1043200300429 
512.00     0.1292                                                 1043200300430 
513.00     0.1362                                                 1043200300431 
514.00     0.1422                                                 1043200300432 
515.00     0.1135                                                 1043200300433 
516.00     0.0984                                                 1043200300434 
517.00     0.1284                                                 1043200300435 
518.00     0.1329                                                 1043200300436 
519.00     0.1400                                                 1043200300437 
520.00     0.1213                                                 1043200300438 
521.00     0.1323                                                 1043200300439 
522.00     0.1296                                                 1043200300440 
523.00     0.1208                                                 1043200300441 
524.00     0.1178                                                 1043200300442 
525.00     0.1160                                                 1043200300443 
526.00     0.1052                                                 1043200300444 
527.00     0.1285                                                 1043200300445 
528.00     0.1244                                                 1043200300446 
529.00     0.1209                                                 1043200300447 
530.00     0.1262                                                 1043200300448 
531.00     0.1325                                                 1043200300449 
532.00     0.1265                                                 1043200300450 
533.00     0.1159                                                 1043200300451 
534.00     0.1063                                                 1043200300452 
535.00     0.1151                                                 1043200300453 
536.00     0.1443                                                 1043200300454 
537.00     0.1322                                                 1043200300455 
538.00     0.1345                                                 1043200300456 
539.00     0.1204                                                 1043200300457 
540.00     0.1047                                                 1043200300458 
541.00     0.1221                                                 1043200300459 
542.00     0.1212                                                 1043200300460 
543.00     0.1165                                                 1043200300461 
544.00     0.1192                                                 1043200300462 
545.00     0.1249                                                 1043200300463 
546.00     0.1007                                                 1043200300464 
547.00     0.1146                                                 1043200300465 
548.00     0.0987                                                 1043200300466 
549.00     0.1223                                                 1043200300467 
550.00     0.1232                                                 1043200300468 
ENDDATA            452          0                                 1043200300469 
ENDSUBENT          468          0                                 1043200399999 
SUBENT        10432004   20030408                             00001043200400001 
BIB                  4          7                                 1043200400002 
REACTION  1(79-AU-197(N,0),,EN)                                   1043200400003 
          2(((79-AU-197(N,EL),,WID,,G)*(79-AU-197(N,G),,WID))/    1043200400004 
           (79-AU-197(N,TOT),,WID))                               1043200400005 
RESULT    2(CAPTA)                                                1043200400006 
ERR-ANALYS Data errors given include systematic and statistical   1043200400007 
            errors.                                               1043200400008 
HISTORY    (19810424A) Reaction corrected.                        1043200400009 
ENDBIB               7          0                                 1043200400010 
COMMON               1          3                                 1043200400011 
DATA-ERR  1                                                       1043200400012 
PER-CENT                                                          1043200400013 
0.06                                                              1043200400014 
ENDCOMMON            3          0                                 1043200400015 
DATA                 3        115                                 1043200400016 
DATA      1DATA      2DATA-ERR  2                                 1043200400017 
EV         MILLI-EV   MILLI-EV                                    1043200400018 
2597.       47.5      3.0                                         1043200400019 
2611.       47.9      3.0                                         1043200400020 
2629.       24.6      2.3                                         1043200400021 
2634.        2.3      1.0                                         1043200400022 
2654.        0.8      0.4                                         1043200400023 
2684.       30.7      1.7                                         1043200400024 
2708.       38.2      2.4                                         1043200400025 
2722.       49.1      2.9                                         1043200400026 
2747.       37.1      2.0                                         1043200400027 
2761.       39.4      2.2                                         1043200400028 
2774.        4.6      0.6                                         1043200400029 
2790.        7.2      0.8                                         1043200400030 
2805.       47.5      2.4                                         1043200400031 
2832.       55.0      3.5                                         1043200400032 
2849.       33.2      2.3                                         1043200400033 
2864.       48.7      3.0                                         1043200400034 
2876.       44.9      2.8                                         1043200400035 
2896.        1.4      0.2                                         1043200400036 
2911.        9.0      0.6                                         1043200400037 
2926.        2.5      0.2                                         1043200400038 
2957.       16.2      0.9                                         1043200400039 
2985.       49.1      2.5                                         1043200400040 
3024.       61.3      3.2                                         1043200400041 
3036.       81.7      4.1                                         1043200400042 
3048.       33.0      2.1                                         1043200400043 
3062.        4.5      0.8                                         1043200400044 
3079.       37.3      2.3                                         1043200400045 
3099.       16.4      0.8                                         1043200400046 
3132.       49.2      4.6                                         1043200400047 
3160.       10.3      1.0                                         1043200400048 
3174.       20.7      1.5                                         1043200400049 
3199.        6.2      0.6                                         1043200400050 
3214.       89.7      4.0                                         1043200400051 
3255.       43.1      8.0                                         1043200400052 
3258.       22.0      6.6                                         1043200400053 
3267.       24.0      1.7                                         1043200400054 
3277.       37.5      2.4                                         1043200400055 
3300.        4.3      0.9                                         1043200400056 
3311.        2.8      0.7                                         1043200400057 
3333.       65.1      3.7                                         1043200400058 
3347.       87.3      4.5                                         1043200400059 
3363.       45.9      2.8                                         1043200400060 
3385.       53.1      3.1                                         1043200400061 
3399.       81.8      4.5                                         1043200400062 
3417.        2.6      0.4                                         1043200400063 
3440.       10.5      0.6                                         1043200400064 
3469.       61.1      4.3                                         1043200400065 
3488.       18.9      2.1                                         1043200400066 
3513.       46.4      5.9                                         1043200400067 
3518.       12.7      3.8                                         1043200400068 
3540.       35.3      2.0                                         1043200400069 
3549.       84.9      4.1                                         1043200400070 
3565.       50.8      2.7                                         1043200400071 
3594.      116.7      5.3                                         1043200400072 
3637.       60.8      2.9                                         1043200400073 
3651.        2.6      0.5                                         1043200400074 
3671.       20.5      1.3                                         1043200400075 
3691.       41.3      2.6                                         1043200400076 
3695.        3.5      1.2                                         1043200400077 
3709.       13.9      1.2                                         1043200400078 
3727.       59.6      2.8                                         1043200400079 
3744.       17.0      1.1                                         1043200400080 
3759.       14.8      3.0                                         1043200400081 
3762.       12.1      2.7                                         1043200400082 
3791.        1.9      0.5                                         1043200400083 
3807.       49.3      2.5                                         1043200400084 
3841.       62.7      3.3                                         1043200400085 
3863.       14.8      1.4                                         1043200400086 
3872.       58.6      3.2                                         1043200400087 
3888.       74.4      3.9                                         1043200400088 
3914.       90.0      4.1                                         1043200400089 
3939.       95.7      4.3                                         1043200400090 
3964.       53.0      2.8                                         1043200400091 
3982.       92.3      7.4                                         1043200400092 
3986.        9.8      3.0                                         1043200400093 
4000.       40.3      2.3                                         1043200400094 
4036.       76.7      3.4                                         1043200400095 
4046.        3.6      0.7                                         1043200400096 
4072.       11.8      0.9                                         1043200400097 
4086.       88.3      3.8                                         1043200400098 
4126.      103.3      5.0                                         1043200400099 
4137.       32.6      2.3                                         1043200400100 
4165.       37.6      6.9                                         1043200400101 
4170.       46.7      7.3                                         1043200400102 
4232.       21.5      1.3                                         1043200400103 
4248.       61.2      3.0                                         1043200400104 
4272.       15.3      1.1                                         1043200400105 
4289.       47.6      2.7                                         1043200400106 
4300.       64.8      3.5                                         1043200400107 
4315.       57.2      4.8                                         1043200400108 
4332.       39.2      2.2                                         1043200400109 
4356.       29.4      2.1                                         1043200400110 
4364.       48.1      2.6                                         1043200400111 
4388.       33.9      1.8                                         1043200400112 
4422.       60.9      2.9                                         1043200400113 
4435.       33.6      1.8                                         1043200400114 
4454.       21.1      1.3                                         1043200400115 
4521.       60.5      3.2                                         1043200400116 
4537.       35.8      6.3                                         1043200400117 
4540.       35.0      6.1                                         1043200400118 
4550.       18.6      1.7                                         1043200400119 
4572.       61.7      3.2                                         1043200400120 
4590.       34.7      2.1                                         1043200400121 
4611.       17.0      1.3                                         1043200400122 
4628.        6.5      0.7                                         1043200400123 
4664.       86.4      4.2                                         1043200400124 
4684.       40.3      2.3                                         1043200400125 
4697.       18.2      1.5                                         1043200400126 
4714.       42.5      2.6                                         1043200400127 
4733.       24.7      1.2                                         1043200400128 
4767.       31.9      2.6                                         1043200400129 
4779.       53.9      3.5                                         1043200400130 
4790.       45.8      3.0                                         1043200400131 
4799.       10.7      1.5                                         1043200400132 
4827.       54.2      2.8                                         1043200400133 
ENDDATA            117          0                                 1043200400134 
ENDSUBENT          133          0                                 1043200499999 
SUBENT        10432005   20030408                             00001043200500001 
BIB                  3          4                                 1043200500002 
REACTION   (79-AU-197(N,EL),,STF)                                 1043200500003 
ERR-ANALYS Data errors given include systematic and statistical   1043200500004 
            errors.                                               1043200500005 
HISTORY    (20030408C)                                            1043200500006 
ENDBIB               4          0                                 1043200500007 
COMMON               2          3                                 1043200500008 
EN-MIN     EN-MAX                                                 1043200500009 
EV         EV                                                     1043200500010 
  23.       120.                                                  1043200500011 
ENDCOMMON            3          0                                 1043200500012 
DATA                 3          3                                 1043200500013 
MOMENTUM L DATA       DATA-ERR                                    1043200500014 
NO-DIM     NO-DIM     NO-DIM                                      1043200500015 
 0.         1.6    -04 0.2    -04                                 1043200500016 
 1.         0.5    -04 0.1    -04                                 1043200500017 
 2.         0.7    -04 0.2    -04                                 1043200500018 
ENDDATA              5          0                                 1043200500019 
ENDSUBENT           18          0                                 1043200599999 
ENDENTRY             5          0                                 1043299999999 
