ENTRY            10489   20120331                             13811048900000001 
SUBENT        10489001   20120331                             13811048900100001 
BIB                 10         20                                 1048900100002 
INSTITUTE  (1USALAS)                                              1048900100003 
REFERENCE  (J,NSE,62,652,1977)                                    1048900100004 
AUTHOR     (A.E.Evans,M.S.Krick)                                  1048900100005 
TITLE      Equilibrium Delayed Neutron Spectra from Fast Fission  1048900100006 
            of Uranium-235, Uranium-238, and Plutonium-239        1048900100007 
FACILITY   (VDG,1USALAS) 3.75 MeV Van de Graaff                   1048900100008 
INC-SPECT  Incident neutron spectrum  80-420 keV                  1048900100009 
DETECTOR   (LONGC) Long counter for calibration.                  1048900100010 
           (HE3SP) Shalev gridded 3He ion chamber                 1048900100011 
MONITOR    Detector efficiency measured relative to 3He long      1048900100012 
            counter.                                              1048900100013 
STATUS     (APRVD) Approved by author 1975/9/29                   1048900100014 
           (TABLE) Final data available only as listing in        1048900100015 
            pdf-file, private communication, Evans, 1977/6/2.     1048900100016 
HISTORY    (19750402C)                                            1048900100017 
           (19830614A) Converted to REACTION formalism            1048900100018 
           (19930319A) Updated to later reference, status changed 1048900100019 
                     on data, converted to lower case.            1048900100020 
           (20040114A) Converted to new date formats, lower case. 1048900100021 
           (20120121U) SD: year of publ.corrected.                1048900100022 
ENDBIB              20          0                                 1048900100023 
NOCOMMON             0          0                                 1048900100024 
ENDSUBENT           23          0                                 1048900199999 
SUBENT        10489002   20040114                             00001048900200001 
BIB                  5          8                                 1048900200002 
REACTION   (92-U-235(N,F),DL,DE,N,REL)                            1048900200003 
SAMPLE     Plate of uranium enriched to 97% 235U                  1048900200004 
CORRECTION Corrected for data efficiency as a function of energy, 1048900200005 
           No correction made for continuum of pulses below 250   1048900200006 
            keV, or for detector wall and end effects.            1048900200007 
ERR-ANALYS No information                                         1048900200008 
STATUS     (PRELM) Taken from private communication, Evans,       1048900200009 
                   1975/3/5.                                      1048900200010 
ENDBIB               8          0                                 1048900200011 
COMMON               2          3                                 1048900200012 
EN-MIN     EN-MAX                                                 1048900200013 
KEV        KEV                                                    1048900200014 
 80.       420.                                                   1048900200015 
ENDCOMMON            3          0                                 1048900200016 
DATA                 3       1300                                 1048900200017 
E-MIN      E-MAX      DATA                                        1048900200018 
KEV        KEV        ARB-UNITS                                   1048900200019 
       0.00       2.40      2842.                                 1048900200020 
       2.40       4.79      2792.                                 1048900200021 
       4.79       7.19      2611.                                 1048900200022 
       7.19       9.59      2234.                                 1048900200023 
       9.59      11.98      1954.                                 1048900200024 
      11.98      14.38      1711.                                 1048900200025 
      14.38      16.78      1553.                                 1048900200026 
      16.78      19.18      1459.                                 1048900200027 
      19.18      21.57      1383.                                 1048900200028 
      21.57      23.97      1286.                                 1048900200029 
      23.97      26.37      1220.                                 1048900200030 
      26.37      28.76      1168.                                 1048900200031 
      28.76      31.16      1099.                                 1048900200032 
      31.16      33.56      1036.                                 1048900200033 
      33.56      35.95       972.                                 1048900200034 
      35.95      38.35       962.                                 1048900200035 
      38.35      40.75       982.                                 1048900200036 
      40.75      43.15       956.                                 1048900200037 
      43.15      45.54       956.                                 1048900200038 
      45.54      47.94       947.                                 1048900200039 
      47.94      50.34       970.                                 1048900200040 
      50.34      52.73       995.                                 1048900200041 
      52.73      55.13      1053.                                 1048900200042 
      55.13      57.53      1048.                                 1048900200043 
      57.53      59.92      1066.                                 1048900200044 
      59.92      62.32      1127.                                 1048900200045 
      62.32      64.72      1162.                                 1048900200046 
      64.72      67.12      1205.                                 1048900200047 
      67.12      69.51      1205.                                 1048900200048 
      69.51      71.91      1277.                                 1048900200049 
      71.91      74.31      1251.                                 1048900200050 
      74.31      76.70      1267.                                 1048900200051 
      76.70      79.10      1302.                                 1048900200052 
      79.10      81.50      1294.                                 1048900200053 
      81.50      83.89      1126.                                 1048900200054 
      83.89      86.29      1146.                                 1048900200055 
      86.29      88.69      1124.                                 1048900200056 
      88.69      91.09      1094.                                 1048900200057 
      91.09      93.48      1141.                                 1048900200058 
      93.48      95.88      1174.                                 1048900200059 
      95.88      98.28      1133.                                 1048900200060 
      98.28     100.67      1183.                                 1048900200061 
     100.67     103.07      1201.                                 1048900200062 
     103.07     105.47      1171.                                 1048900200063 
     105.47     107.86      1227.                                 1048900200064 
     107.86     110.26      1283.                                 1048900200065 
     110.26     112.66      1354.                                 1048900200066 
     112.66     115.06      1401.                                 1048900200067 
     115.06     117.45      1383.                                 1048900200068 
     117.45     119.85      1407.                                 1048900200069 
     119.85     122.25      1519.                                 1048900200070 
     122.25     124.64      1490.                                 1048900200071 
     124.64     127.04      1584.                                 1048900200072 
     127.04     129.44      1706.                                 1048900200073 
     129.44     131.83      1674.                                 1048900200074 
     131.83     134.23      1740.                                 1048900200075 
     134.23     136.63      1692.                                 1048900200076 
     136.63     139.03      1573.                                 1048900200077 
     139.03     141.42      1600.                                 1048900200078 
     141.42     143.82      1542.                                 1048900200079 
     143.82     146.22      1455.                                 1048900200080 
     146.22     148.61      1450.                                 1048900200081 
     148.61     151.01      1492.                                 1048900200082 
     151.01     153.41      1350.                                 1048900200083 
     153.41     155.80      1404.                                 1048900200084 
     155.80     158.20      1514.                                 1048900200085 
     158.20     160.60      1588.                                 1048900200086 
     160.60     163.00      1542.                                 1048900200087 
     163.00     165.39      1604.                                 1048900200088 
     165.39     167.79      1575.                                 1048900200089 
     167.79     170.19      1658.                                 1048900200090 
     170.19     172.58      1623.                                 1048900200091 
     172.58     174.98      1759.                                 1048900200092 
     174.98     177.38      1750.                                 1048900200093 
     177.38     179.77      1836.                                 1048900200094 
     179.77     182.17      1853.                                 1048900200095 
     182.17     184.57      1867.                                 1048900200096 
     184.57     186.97      1816.                                 1048900200097 
     186.97     189.36      1747.                                 1048900200098 
     189.36     191.76      1736.                                 1048900200099 
     191.76     194.16      1759.                                 1048900200100 
     194.16     196.55      1732.                                 1048900200101 
     196.55     198.95      1705.                                 1048900200102 
     198.95     201.35      1732.                                 1048900200103 
     201.35     203.74      1712.                                 1048900200104 
     203.74     206.14      1734.                                 1048900200105 
     206.14     208.54      1632.                                 1048900200106 
     208.54     210.94      1668.                                 1048900200107 
     210.94     213.33      1792.                                 1048900200108 
     213.33     215.73      1727.                                 1048900200109 
     215.73     218.13      1621.                                 1048900200110 
     218.13     220.52      1672.                                 1048900200111 
     220.52     222.92      1778.                                 1048900200112 
     222.92     225.32      1726.                                 1048900200113 
     225.32     227.71      1768.                                 1048900200114 
     227.71     230.11      1883.                                 1048900200115 
     230.11     232.51      1766.                                 1048900200116 
     232.51     234.91      1903.                                 1048900200117 
     234.91     237.30      1720.                                 1048900200118 
     237.30     239.70      2043.                                 1048900200119 
     239.70     242.10      1968.                                 1048900200120 
     242.10     244.49      1932.                                 1048900200121 
     244.49     246.89      2019.                                 1048900200122 
     246.89     249.29      1992.                                 1048900200123 
     249.29     251.68      1922.                                 1048900200124 
     251.68     254.08      2089.                                 1048900200125 
     254.08     256.48      1993.                                 1048900200126 
     256.48     258.88      2128.                                 1048900200127 
     258.88     261.27      1980.                                 1048900200128 
     261.27     263.67      2136.                                 1048900200129 
     263.67     266.07      2048.                                 1048900200130 
     266.07     268.46      2055.                                 1048900200131 
     268.46     270.86      1921.                                 1048900200132 
     270.86     273.26      1949.                                 1048900200133 
     273.26     275.65      1938.                                 1048900200134 
     275.65     278.05      1880.                                 1048900200135 
     278.05     280.45      1672.                                 1048900200136 
     280.45     282.85      1828.                                 1048900200137 
     282.85     285.24      1767.                                 1048900200138 
     285.24     287.64      1480.                                 1048900200139 
     287.64     290.04      1752.                                 1048900200140 
     290.04     292.43      1827.                                 1048900200141 
     292.43     294.83      1760.                                 1048900200142 
     294.83     297.23      1629.                                 1048900200143 
     297.23     299.63      1758.                                 1048900200144 
     299.63     302.02      1719.                                 1048900200145 
     302.02     304.42      1903.                                 1048900200146 
     304.42     306.82      1876.                                 1048900200147 
     306.82     309.21      1781.                                 1048900200148 
     309.21     311.61      1682.                                 1048900200149 
     311.61     314.01      1653.                                 1048900200150 
     314.01     316.40      1719.                                 1048900200151 
     316.40     318.80      1690.                                 1048900200152 
     318.80     321.20      1654.                                 1048900200153 
     321.20     323.59      1657.                                 1048900200154 
     323.59     325.99      1602.                                 1048900200155 
     325.99     328.39      1824.                                 1048900200156 
     328.39     330.79      1762.                                 1048900200157 
     330.79     333.18      1878.                                 1048900200158 
     333.18     335.58      1890.                                 1048900200159 
     335.58     337.98      1796.                                 1048900200160 
     337.98     340.37      1779.                                 1048900200161 
     340.37     342.77      1829.                                 1048900200162 
     342.77     345.17      1809.                                 1048900200163 
     345.17     347.56      1818.                                 1048900200164 
     347.56     349.96      1620.                                 1048900200165 
     349.96     352.36      1675.                                 1048900200166 
     352.36     354.76      1715.                                 1048900200167 
     354.76     357.15      1593.                                 1048900200168 
     357.15     359.55      1720.                                 1048900200169 
     359.55     361.95      1817.                                 1048900200170 
     361.95     364.34      1722.                                 1048900200171 
     364.34     366.74      1754.                                 1048900200172 
     366.74     369.14      1792.                                 1048900200173 
     369.14     371.53      1811.                                 1048900200174 
     371.53     373.93      1926.                                 1048900200175 
     373.93     376.33      1849.                                 1048900200176 
     376.33     378.73      1888.                                 1048900200177 
     378.73     381.12      1690.                                 1048900200178 
     381.12     383.52      1602.                                 1048900200179 
     383.52     385.92      1648.                                 1048900200180 
     385.92     388.31      1604.                                 1048900200181 
     388.31     390.71      1497.                                 1048900200182 
     390.71     393.11      1492.                                 1048900200183 
     393.11     395.50      1394.                                 1048900200184 
     395.50     397.90      1425.                                 1048900200185 
     397.90     400.30      1461.                                 1048900200186 
     400.30     402.70      1439.                                 1048900200187 
     402.70     405.09      1414.                                 1048900200188 
     405.09     407.49      1424.                                 1048900200189 
     407.49     409.89      1296.                                 1048900200190 
     409.89     412.28      1318.                                 1048900200191 
     412.28     414.68      1365.                                 1048900200192 
     414.68     417.08      1273.                                 1048900200193 
     417.08     419.47      1320.                                 1048900200194 
     419.47     421.87      1338.                                 1048900200195 
     421.87     424.27      1200.                                 1048900200196 
     424.27     426.67      1238.                                 1048900200197 
     426.67     429.06      1128.                                 1048900200198 
     429.06     431.46      1200.                                 1048900200199 
     431.46     433.86      1020.                                 1048900200200 
     433.86     436.25      1108.                                 1048900200201 
     436.25     438.65      1171.                                 1048900200202 
     438.65     441.05      1179.                                 1048900200203 
     441.05     443.44      1201.                                 1048900200204 
     443.44     445.84      1291.                                 1048900200205 
     445.84     448.24      1160.                                 1048900200206 
     448.24     450.64      1128.                                 1048900200207 
     450.64     453.03      1199.                                 1048900200208 
     453.03     455.43      1261.                                 1048900200209 
     455.43     457.83      1267.                                 1048900200210 
     457.83     460.22      1203.                                 1048900200211 
     460.22     462.62      1222.                                 1048900200212 
     462.62     465.02      1137.                                 1048900200213 
     465.02     467.41      1179.                                 1048900200214 
     467.41     469.81      1263.                                 1048900200215 
     469.81     472.21      1181.                                 1048900200216 
     472.21     474.61      1199.                                 1048900200217 
     474.61     477.00      1152.                                 1048900200218 
     477.00     479.40      1173.                                 1048900200219 
     479.40     481.80      1170.                                 1048900200220 
     481.80     484.19      1212.                                 1048900200221 
     484.19     486.59      1236.                                 1048900200222 
     486.59     488.99      1201.                                 1048900200223 
     488.99     491.38      1214.                                 1048900200224 
     491.38     493.78      1078.                                 1048900200225 
     493.78     496.18      1177.                                 1048900200226 
     496.18     498.58      1129.                                 1048900200227 
     498.58     500.97      1157.                                 1048900200228 
     500.97     503.37      1064.                                 1048900200229 
     503.37     505.77      1105.                                 1048900200230 
     505.77     508.16      1133.                                 1048900200231 
     508.16     510.56      1145.                                 1048900200232 
     510.56     512.96      1106.                                 1048900200233 
     512.96     515.35       930.                                 1048900200234 
     515.35     517.75       999.                                 1048900200235 
     517.75     520.15       944.                                 1048900200236 
     520.15     522.55       891.                                 1048900200237 
     522.55     524.94       877.                                 1048900200238 
     524.94     527.34       862.                                 1048900200239 
     527.34     529.74       826.                                 1048900200240 
     529.74     532.13       888.                                 1048900200241 
     532.13     534.53       893.                                 1048900200242 
     534.53     536.93       917.                                 1048900200243 
     536.93     539.32       942.                                 1048900200244 
     539.32     541.72       853.                                 1048900200245 
     541.72     544.12       906.                                 1048900200246 
     544.12     546.52       950.                                 1048900200247 
     546.52     548.91      1109.                                 1048900200248 
     548.91     551.31       998.                                 1048900200249 
     551.31     553.71      1041.                                 1048900200250 
     553.71     556.10       952.                                 1048900200251 
     556.10     558.50       969.                                 1048900200252 
     558.50     560.90       885.                                 1048900200253 
     560.90     563.29      1002.                                 1048900200254 
     563.29     565.69      1003.                                 1048900200255 
     565.69     568.09       909.                                 1048900200256 
     568.09     570.49       939.                                 1048900200257 
     570.49     572.88       902.                                 1048900200258 
     572.88     575.28       917.                                 1048900200259 
     575.28     577.68       950.                                 1048900200260 
     577.68     580.07       966.                                 1048900200261 
     580.07     582.47       888.                                 1048900200262 
     582.47     584.87       835.                                 1048900200263 
     584.87     587.26       863.                                 1048900200264 
     587.26     589.66       861.                                 1048900200265 
     589.66     592.06       945.                                 1048900200266 
     592.06     594.46       868.                                 1048900200267 
     594.46     596.85       887.                                 1048900200268 
     596.85     599.25       876.                                 1048900200269 
     599.25     601.65       910.                                 1048900200270 
     601.65     604.04       905.                                 1048900200271 
     604.04     606.44       789.                                 1048900200272 
     606.44     608.84       925.                                 1048900200273 
     608.84     611.23       867.                                 1048900200274 
     611.23     613.63       843.                                 1048900200275 
     613.63     616.03       894.                                 1048900200276 
     616.03     618.43       901.                                 1048900200277 
     618.43     620.82       845.                                 1048900200278 
     620.82     623.22       804.                                 1048900200279 
     623.22     625.62       795.                                 1048900200280 
     625.62     628.01       744.                                 1048900200281 
     628.01     630.41       808.                                 1048900200282 
     630.41     632.81       873.                                 1048900200283 
     632.81     635.20       779.                                 1048900200284 
     635.20     637.60       841.                                 1048900200285 
     637.60     640.00       854.                                 1048900200286 
     640.00     642.40       762.                                 1048900200287 
     642.40     644.79       749.                                 1048900200288 
     644.79     647.19       844.                                 1048900200289 
     647.19     649.59       735.                                 1048900200290 
     649.59     651.98       883.                                 1048900200291 
     651.98     654.38       873.                                 1048900200292 
     654.38     656.78       789.                                 1048900200293 
     656.78     659.17       782.                                 1048900200294 
     659.17     661.57       882.                                 1048900200295 
     661.57     663.97       824.                                 1048900200296 
     663.97     666.37       820.                                 1048900200297 
     666.37     668.76       826.                                 1048900200298 
     668.76     671.16       829.                                 1048900200299 
     671.16     673.56       907.                                 1048900200300 
     673.56     675.95       800.                                 1048900200301 
     675.95     678.35       840.                                 1048900200302 
     678.35     680.75       804.                                 1048900200303 
     680.75     683.14       882.                                 1048900200304 
     683.14     685.54       798.                                 1048900200305 
     685.54     687.94       863.                                 1048900200306 
     687.94     690.34       732.                                 1048900200307 
     690.34     692.73       807.                                 1048900200308 
     692.73     695.13       918.                                 1048900200309 
     695.13     697.53       758.                                 1048900200310 
     697.53     699.92       770.                                 1048900200311 
     699.92     702.32       839.                                 1048900200312 
     702.32     704.72       774.                                 1048900200313 
     704.72     707.11       764.                                 1048900200314 
     707.11     709.51       734.                                 1048900200315 
     709.51     711.91       739.                                 1048900200316 
     711.91     714.31       769.                                 1048900200317 
     714.31     716.70       652.                                 1048900200318 
     716.70     719.10       760.                                 1048900200319 
     719.10     721.50       765.                                 1048900200320 
     721.50     723.89       791.                                 1048900200321 
     723.89     726.29       710.                                 1048900200322 
     726.29     728.69       758.                                 1048900200323 
     728.69     731.08       820.                                 1048900200324 
     731.08     733.48       767.                                 1048900200325 
     733.48     735.88       782.                                 1048900200326 
     735.88     738.28       747.                                 1048900200327 
     738.28     740.67       791.                                 1048900200328 
     740.67     743.07       850.                                 1048900200329 
     743.07     745.47       760.                                 1048900200330 
     745.47     747.86       790.                                 1048900200331 
     747.86     750.26       707.                                 1048900200332 
     750.26     752.66       784.                                 1048900200333 
     752.66     755.05       719.                                 1048900200334 
     755.05     757.45       756.                                 1048900200335 
     757.45     759.85       629.                                 1048900200336 
     759.85     762.25       677.                                 1048900200337 
     762.25     764.64       608.                                 1048900200338 
     764.64     767.04       703.                                 1048900200339 
     767.04     769.44       667.                                 1048900200340 
     769.44     771.83       748.                                 1048900200341 
     771.83     774.23       624.                                 1048900200342 
     774.23     776.63       584.                                 1048900200343 
     776.63     779.02       621.                                 1048900200344 
     779.02     781.42       672.                                 1048900200345 
     781.42     783.82       581.                                 1048900200346 
     783.82     786.22       625.                                 1048900200347 
     786.22     788.61       571.                                 1048900200348 
     788.61     791.01       662.                                 1048900200349 
     791.01     793.41       556.                                 1048900200350 
     793.41     795.80       575.                                 1048900200351 
     795.80     798.20       538.                                 1048900200352 
     798.20     800.60       619.                                 1048900200353 
     800.60     802.99       641.                                 1048900200354 
     802.99     805.39       528.                                 1048900200355 
     805.39     807.79       557.                                 1048900200356 
     807.79     810.19       517.                                 1048900200357 
     810.19     812.58       440.                                 1048900200358 
     812.58     814.98       521.                                 1048900200359 
     814.98     817.38       605.                                 1048900200360 
     817.38     819.77       525.                                 1048900200361 
     819.77     822.17       547.                                 1048900200362 
     822.17     824.57       492.                                 1048900200363 
     824.57     826.96       562.                                 1048900200364 
     826.96     829.36       598.                                 1048900200365 
     829.36     831.76       540.                                 1048900200366 
     831.76     834.16       588.                                 1048900200367 
     834.16     836.55       702.                                 1048900200368 
     836.55     838.95       680.                                 1048900200369 
     838.95     841.35       606.                                 1048900200370 
     841.35     843.74       525.                                 1048900200371 
     843.74     846.14       610.                                 1048900200372 
     846.14     848.54       566.                                 1048900200373 
     848.54     850.93       562.                                 1048900200374 
     850.93     853.33       481.                                 1048900200375 
     853.33     855.73       522.                                 1048900200376 
     855.73     858.13       478.                                 1048900200377 
     858.13     860.52       456.                                 1048900200378 
     860.52     862.92       456.                                 1048900200379 
     862.92     865.32       507.                                 1048900200380 
     865.32     867.71       559.                                 1048900200381 
     867.71     870.11       437.                                 1048900200382 
     870.11     872.51       467.                                 1048900200383 
     872.51     874.90       463.                                 1048900200384 
     874.90     877.30       492.                                 1048900200385 
     877.30     879.70       537.                                 1048900200386 
     879.70     882.10       401.                                 1048900200387 
     882.10     884.49       452.                                 1048900200388 
     884.49     886.89       452.                                 1048900200389 
     886.89     889.29       434.                                 1048900200390 
     889.29     891.68       481.                                 1048900200391 
     891.68     894.08       485.                                 1048900200392 
     894.08     896.48       463.                                 1048900200393 
     896.48     898.87       551.                                 1048900200394 
     898.87     901.27       456.                                 1048900200395 
     901.27     903.67       489.                                 1048900200396 
     903.67     906.07       437.                                 1048900200397 
     906.07     908.46       441.                                 1048900200398 
     908.46     910.86       452.                                 1048900200399 
     910.86     913.26       474.                                 1048900200400 
     913.26     915.65       478.                                 1048900200401 
     915.65     918.05       533.                                 1048900200402 
     918.05     920.45       445.                                 1048900200403 
     920.45     922.84       441.                                 1048900200404 
     922.84     925.24       404.                                 1048900200405 
     925.24     927.64       423.                                 1048900200406 
     927.64     930.04       493.                                 1048900200407 
     930.04     932.43       415.                                 1048900200408 
     932.43     934.83       404.                                 1048900200409 
     934.83     937.23       448.                                 1048900200410 
     937.23     939.62       467.                                 1048900200411 
     939.62     942.02       526.                                 1048900200412 
     942.02     944.42       393.                                 1048900200413 
     944.42     946.81       448.                                 1048900200414 
     946.81     949.21       393.                                 1048900200415 
     949.21     951.61       456.                                 1048900200416 
     951.61     954.01       412.                                 1048900200417 
     954.01     956.40       463.                                 1048900200418 
     956.40     958.80       423.                                 1048900200419 
     958.80     961.20       393.                                 1048900200420 
     961.20     963.59       323.                                 1048900200421 
     963.59     965.99       448.                                 1048900200422 
     965.99     968.39       404.                                 1048900200423 
     968.39     970.78       408.                                 1048900200424 
     970.78     973.18       423.                                 1048900200425 
     973.18     975.58       412.                                 1048900200426 
     975.58     977.98       463.                                 1048900200427 
     977.98     980.37       356.                                 1048900200428 
     980.37     982.77       415.                                 1048900200429 
     982.77     985.17       441.                                 1048900200430 
     985.17     987.56       448.                                 1048900200431 
     987.56     989.96       412.                                 1048900200432 
     989.96     992.36       412.                                 1048900200433 
     992.36     994.75       375.                                 1048900200434 
     994.75     997.15       390.                                 1048900200435 
     997.15     999.55       364.                                 1048900200436 
     999.55    1001.95       353.                                 1048900200437 
    1001.95    1004.34       338.                                 1048900200438 
    1004.34    1006.74       342.                                 1048900200439 
    1006.74    1009.14       316.                                 1048900200440 
    1009.14    1011.53       419.                                 1048900200441 
    1011.53    1013.93       305.                                 1048900200442 
    1013.93    1016.33       371.                                 1048900200443 
    1016.33    1018.72       283.                                 1048900200444 
    1018.72    1021.12       320.                                 1048900200445 
    1021.12    1023.52       316.                                 1048900200446 
    1023.52    1025.92       356.                                 1048900200447 
    1025.92    1028.31       309.                                 1048900200448 
    1028.31    1030.71       356.                                 1048900200449 
    1030.71    1033.11       364.                                 1048900200450 
    1033.11    1035.50       345.                                 1048900200451 
    1035.50    1037.90       316.                                 1048900200452 
    1037.90    1040.30       375.                                 1048900200453 
    1040.30    1042.69       345.                                 1048900200454 
    1042.69    1045.09       345.                                 1048900200455 
    1045.09    1047.49       312.                                 1048900200456 
    1047.49    1049.89       309.                                 1048900200457 
    1049.89    1052.28       242.                                 1048900200458 
    1052.28    1054.68       294.                                 1048900200459 
    1054.68    1057.08       342.                                 1048900200460 
    1057.08    1059.47       213.                                 1048900200461 
    1059.47    1061.87       261.                                 1048900200462 
    1061.87    1064.27       309.                                 1048900200463 
    1064.27    1066.66       283.                                 1048900200464 
    1066.66    1069.06       264.                                 1048900200465 
    1069.06    1071.46       301.                                 1048900200466 
    1071.46    1073.86       275.                                 1048900200467 
    1073.86    1076.25       298.                                 1048900200468 
    1076.25    1078.65       309.                                 1048900200469 
    1078.65    1081.05       253.                                 1048900200470 
    1081.05    1083.44       268.                                 1048900200471 
    1083.44    1085.84       275.                                 1048900200472 
    1085.84    1088.24       312.                                 1048900200473 
    1088.24    1090.63       220.                                 1048900200474 
    1090.63    1093.03       287.                                 1048900200475 
    1093.03    1095.43       239.                                 1048900200476 
    1095.43    1097.83       309.                                 1048900200477 
    1097.83    1100.22       287.                                 1048900200478 
    1100.22    1102.62       279.                                 1048900200479 
    1102.62    1105.02       301.                                 1048900200480 
    1105.02    1107.41       264.                                 1048900200481 
    1107.41    1109.81       242.                                 1048900200482 
    1109.81    1112.21       309.                                 1048900200483 
    1112.21    1114.60       290.                                 1048900200484 
    1114.60    1117.00       316.                                 1048900200485 
    1117.00    1119.40       375.                                 1048900200486 
    1119.40    1121.80       294.                                 1048900200487 
    1121.80    1124.19       290.                                 1048900200488 
    1124.19    1126.59       320.                                 1048900200489 
    1126.59    1128.99       268.                                 1048900200490 
    1128.99    1131.38       301.                                 1048900200491 
    1131.38    1133.78       279.                                 1048900200492 
    1133.78    1136.18       268.                                 1048900200493 
    1136.18    1138.57       331.                                 1048900200494 
    1138.57    1140.97       338.                                 1048900200495 
    1140.97    1143.37       272.                                 1048900200496 
    1143.37    1145.77       268.                                 1048900200497 
    1145.77    1148.16       264.                                 1048900200498 
    1148.16    1150.56       257.                                 1048900200499 
    1150.56    1152.96       298.                                 1048900200500 
    1152.96    1155.35       261.                                 1048900200501 
    1155.35    1157.75       239.                                 1048900200502 
    1157.75    1160.15       242.                                 1048900200503 
    1160.15    1162.54       253.                                 1048900200504 
    1162.54    1164.94       257.                                 1048900200505 
    1164.94    1167.34       261.                                 1048900200506 
    1167.34    1169.74       305.                                 1048900200507 
    1169.74    1172.13       257.                                 1048900200508 
    1172.13    1174.53       217.                                 1048900200509 
    1174.53    1176.93       235.                                 1048900200510 
    1176.93    1179.32       257.                                 1048900200511 
    1179.32    1181.72       198.                                 1048900200512 
    1181.72    1184.12       209.                                 1048900200513 
    1184.12    1186.51       228.                                 1048900200514 
    1186.51    1188.91       250.                                 1048900200515 
    1188.91    1191.31       235.                                 1048900200516 
    1191.31    1193.71       231.                                 1048900200517 
    1193.71    1196.10       246.                                 1048900200518 
    1196.10    1198.50       191.                                 1048900200519 
    1198.50    1200.90       191.                                 1048900200520 
    1200.90    1203.29       202.                                 1048900200521 
    1203.29    1205.69       209.                                 1048900200522 
    1205.69    1208.09       183.                                 1048900200523 
    1208.09    1210.48       180.                                 1048900200524 
    1210.48    1212.88       231.                                 1048900200525 
    1212.88    1215.28       180.                                 1048900200526 
    1215.28    1217.68       206.                                 1048900200527 
    1217.68    1220.07       209.                                 1048900200528 
    1220.07    1222.47       139.                                 1048900200529 
    1222.47    1224.87       169.                                 1048900200530 
    1224.87    1227.26       191.                                 1048900200531 
    1227.26    1229.66       191.                                 1048900200532 
    1229.66    1232.06       139.                                 1048900200533 
    1232.06    1234.45       169.                                 1048900200534 
    1234.45    1236.85       143.                                 1048900200535 
    1236.85    1239.25       161.                                 1048900200536 
    1239.25    1241.65       139.                                 1048900200537 
    1241.65    1244.04       165.                                 1048900200538 
    1244.04    1246.44       125.                                 1048900200539 
    1246.44    1248.84       143.                                 1048900200540 
    1248.84    1251.23       161.                                 1048900200541 
    1251.23    1253.63       139.                                 1048900200542 
    1253.63    1256.03       125.                                 1048900200543 
    1256.03    1258.42       150.                                 1048900200544 
    1258.42    1260.82       206.                                 1048900200545 
    1260.82    1263.22       110.                                 1048900200546 
    1263.22    1265.62       172.                                 1048900200547 
    1265.62    1268.01       132.                                 1048900200548 
    1268.01    1270.41       139.                                 1048900200549 
    1270.41    1272.81       150.                                 1048900200550 
    1272.81    1275.20       125.                                 1048900200551 
    1275.20    1277.60       143.                                 1048900200552 
    1277.60    1280.00       110.                                 1048900200553 
    1280.00    1282.39       183.                                 1048900200554 
    1282.39    1284.79       154.                                 1048900200555 
    1284.79    1287.19       114.                                 1048900200556 
    1287.19    1289.59       165.                                 1048900200557 
    1289.59    1291.98       147.                                 1048900200558 
    1291.98    1294.38       139.                                 1048900200559 
    1294.38    1296.78       125.                                 1048900200560 
    1296.78    1299.17       136.                                 1048900200561 
    1299.17    1301.57       158.                                 1048900200562 
    1301.57    1303.97       147.                                 1048900200563 
    1303.97    1306.36       161.                                 1048900200564 
    1306.36    1308.76       139.                                 1048900200565 
    1308.76    1311.16       136.                                 1048900200566 
    1311.16    1313.56        99.                                 1048900200567 
    1313.56    1315.95       165.                                 1048900200568 
    1315.95    1318.35       154.                                 1048900200569 
    1318.35    1320.75       136.                                 1048900200570 
    1320.75    1323.14       117.                                 1048900200571 
    1323.14    1325.54       132.                                 1048900200572 
    1325.54    1327.94       180.                                 1048900200573 
    1327.94    1330.33       136.                                 1048900200574 
    1330.33    1332.73       125.                                 1048900200575 
    1332.73    1335.13       114.                                 1048900200576 
    1335.13    1337.53       132.                                 1048900200577 
    1337.53    1339.92       132.                                 1048900200578 
    1339.92    1342.32       132.                                 1048900200579 
    1342.32    1344.72        99.                                 1048900200580 
    1344.72    1347.11       143.                                 1048900200581 
    1347.11    1349.51       132.                                 1048900200582 
    1349.51    1351.91       110.                                 1048900200583 
    1351.91    1354.30       158.                                 1048900200584 
    1354.30    1356.70        95.                                 1048900200585 
    1356.70    1359.10       117.                                 1048900200586 
    1359.10    1361.50       106.                                 1048900200587 
    1361.50    1363.89       150.                                 1048900200588 
    1363.89    1366.29       106.                                 1048900200589 
    1366.29    1368.69       128.                                 1048900200590 
    1368.69    1371.08       143.                                 1048900200591 
    1371.08    1373.48       183.                                 1048900200592 
    1373.48    1375.88       117.                                 1048900200593 
    1375.88    1378.27       125.                                 1048900200594 
    1378.27    1380.67        95.                                 1048900200595 
    1380.67    1383.07       132.                                 1048900200596 
    1383.07    1385.47       128.                                 1048900200597 
    1385.47    1387.86       117.                                 1048900200598 
    1387.86    1390.26       147.                                 1048900200599 
    1390.26    1392.66       128.                                 1048900200600 
    1392.66    1395.05        88.                                 1048900200601 
    1395.05    1397.45       125.                                 1048900200602 
    1397.45    1399.85       110.                                 1048900200603 
    1399.85    1402.24       114.                                 1048900200604 
    1402.24    1404.64       110.                                 1048900200605 
    1404.64    1407.04       110.                                 1048900200606 
    1407.04    1409.44       136.                                 1048900200607 
    1409.44    1411.83       110.                                 1048900200608 
    1411.83    1414.23       114.                                 1048900200609 
    1414.23    1416.63        99.                                 1048900200610 
    1416.63    1419.02       147.                                 1048900200611 
    1419.02    1421.42       132.                                 1048900200612 
    1421.42    1423.82       132.                                 1048900200613 
    1423.82    1426.21       136.                                 1048900200614 
    1426.21    1428.61       110.                                 1048900200615 
    1428.61    1431.01        99.                                 1048900200616 
    1431.01    1433.41       114.                                 1048900200617 
    1433.41    1435.80        88.                                 1048900200618 
    1435.80    1438.20        91.                                 1048900200619 
    1438.20    1440.60       143.                                 1048900200620 
    1440.60    1442.99       103.                                 1048900200621 
    1442.99    1445.39       132.                                 1048900200622 
    1445.39    1447.79       132.                                 1048900200623 
    1447.79    1450.18       132.                                 1048900200624 
    1450.18    1452.58        95.                                 1048900200625 
    1452.58    1454.98       106.                                 1048900200626 
    1454.98    1457.38       114.                                 1048900200627 
    1457.38    1459.77        91.                                 1048900200628 
    1459.77    1462.17        73.                                 1048900200629 
    1462.17    1464.57        69.                                 1048900200630 
    1464.57    1466.96        77.                                 1048900200631 
    1466.96    1469.36        80.                                 1048900200632 
    1469.36    1471.76        95.                                 1048900200633 
    1471.76    1474.15       103.                                 1048900200634 
    1474.15    1476.55        88.                                 1048900200635 
    1476.55    1478.95        77.                                 1048900200636 
    1478.95    1481.35       103.                                 1048900200637 
    1481.35    1483.74        91.                                 1048900200638 
    1483.74    1486.14        88.                                 1048900200639 
    1486.14    1488.54        73.                                 1048900200640 
    1488.54    1490.93        69.                                 1048900200641 
    1490.93    1493.33        69.                                 1048900200642 
    1493.33    1495.73        77.                                 1048900200643 
    1495.73    1498.12        91.                                 1048900200644 
    1498.12    1500.52        91.                                 1048900200645 
    1500.52    1502.92        73.                                 1048900200646 
    1502.92    1505.32        73.                                 1048900200647 
    1505.32    1507.71        99.                                 1048900200648 
    1507.71    1510.11        73.                                 1048900200649 
    1510.11    1512.51        84.                                 1048900200650 
    1512.51    1514.90        62.                                 1048900200651 
    1514.90    1517.30        73.                                 1048900200652 
    1517.30    1519.70        69.                                 1048900200653 
    1519.70    1522.09        77.                                 1048900200654 
    1522.09    1524.49        51.                                 1048900200655 
    1524.49    1526.89        77.                                 1048900200656 
    1526.89    1529.29        69.                                 1048900200657 
    1529.29    1531.68        51.                                 1048900200658 
    1531.68    1534.08       103.                                 1048900200659 
    1534.08    1536.48        47.                                 1048900200660 
    1536.48    1538.87        69.                                 1048900200661 
    1538.87    1541.27        62.                                 1048900200662 
    1541.27    1543.67        36.                                 1048900200663 
    1543.67    1546.06        69.                                 1048900200664 
    1546.06    1548.46        84.                                 1048900200665 
    1548.46    1550.86        58.                                 1048900200666 
    1550.86    1553.26        47.                                 1048900200667 
    1553.26    1555.65        62.                                 1048900200668 
    1555.65    1558.05       121.                                 1048900200669 
    1558.05    1560.45        58.                                 1048900200670 
    1560.45    1562.84        55.                                 1048900200671 
    1562.84    1565.24        77.                                 1048900200672 
    1565.24    1567.64        69.                                 1048900200673 
    1567.64    1570.03        91.                                 1048900200674 
    1570.03    1572.43        80.                                 1048900200675 
    1572.43    1574.83        66.                                 1048900200676 
    1574.83    1577.23        77.                                 1048900200677 
    1577.23    1579.62        36.                                 1048900200678 
    1579.62    1582.02        66.                                 1048900200679 
    1582.02    1584.42        47.                                 1048900200680 
    1584.42    1586.81        47.                                 1048900200681 
    1586.81    1589.21        62.                                 1048900200682 
    1589.21    1591.61        69.                                 1048900200683 
    1591.61    1594.00        55.                                 1048900200684 
    1594.00    1596.40        91.                                 1048900200685 
    1596.40    1598.80        69.                                 1048900200686 
    1598.80    1601.20        62.                                 1048900200687 
    1601.20    1603.59        77.                                 1048900200688 
    1603.59    1605.99        84.                                 1048900200689 
    1605.99    1608.39        62.                                 1048900200690 
    1608.39    1610.78        84.                                 1048900200691 
    1610.78    1613.18        40.                                 1048900200692 
    1613.18    1615.58        62.                                 1048900200693 
    1615.58    1617.97        58.                                 1048900200694 
    1617.97    1620.37        69.                                 1048900200695 
    1620.37    1622.77        58.                                 1048900200696 
    1622.77    1625.17        47.                                 1048900200697 
    1625.17    1627.56        69.                                 1048900200698 
    1627.56    1629.96        47.                                 1048900200699 
    1629.96    1632.36        66.                                 1048900200700 
    1632.36    1634.75        51.                                 1048900200701 
    1634.75    1637.15        58.                                 1048900200702 
    1637.15    1639.55        66.                                 1048900200703 
    1639.55    1641.94        44.                                 1048900200704 
    1641.94    1644.34        66.                                 1048900200705 
    1644.34    1646.74        62.                                 1048900200706 
    1646.74    1649.14        62.                                 1048900200707 
    1649.14    1651.53        51.                                 1048900200708 
    1651.53    1653.93        69.                                 1048900200709 
    1653.93    1656.33        91.                                 1048900200710 
    1656.33    1658.72        58.                                 1048900200711 
    1658.72    1661.12        22.                                 1048900200712 
    1661.12    1663.52        73.                                 1048900200713 
    1663.52    1665.91        58.                                 1048900200714 
    1665.91    1668.31        44.                                 1048900200715 
    1668.31    1670.71        55.                                 1048900200716 
    1670.71    1673.11        40.                                 1048900200717 
    1673.11    1675.50        40.                                 1048900200718 
    1675.50    1677.90        77.                                 1048900200719 
    1677.90    1680.30        25.                                 1048900200720 
    1680.30    1682.69        62.                                 1048900200721 
    1682.69    1685.09        40.                                 1048900200722 
    1685.09    1687.49        55.                                 1048900200723 
    1687.49    1689.88        14.                                 1048900200724 
    1689.88    1692.28        55.                                 1048900200725 
    1692.28    1694.68        51.                                 1048900200726 
    1694.68    1697.08        73.                                 1048900200727 
    1697.08    1699.47        36.                                 1048900200728 
    1699.47    1701.87        51.                                 1048900200729 
    1701.87    1704.27        47.                                 1048900200730 
    1704.27    1706.66        66.                                 1048900200731 
    1706.66    1709.06        55.                                 1048900200732 
    1709.06    1711.46        18.                                 1048900200733 
    1711.46    1713.85        44.                                 1048900200734 
    1713.85    1716.25        33.                                 1048900200735 
    1716.25    1718.65        40.                                 1048900200736 
    1718.65    1721.05        55.                                 1048900200737 
    1721.05    1723.44        44.                                 1048900200738 
    1723.44    1725.84        36.                                 1048900200739 
    1725.84    1728.24        44.                                 1048900200740 
    1728.24    1730.63        22.                                 1048900200741 
    1730.63    1733.03        62.                                 1048900200742 
    1733.03    1735.43        29.                                 1048900200743 
    1735.43    1737.82        29.                                 1048900200744 
    1737.82    1740.22        40.                                 1048900200745 
    1740.22    1742.62        25.                                 1048900200746 
    1742.62    1745.02        36.                                 1048900200747 
    1745.02    1747.41        36.                                 1048900200748 
    1747.41    1749.81        36.                                 1048900200749 
    1749.81    1752.21        40.                                 1048900200750 
    1752.21    1754.60        55.                                 1048900200751 
    1754.60    1757.00        51.                                 1048900200752 
    1757.00    1759.40        58.                                 1048900200753 
    1759.40    1761.79        40.                                 1048900200754 
    1761.79    1764.19        40.                                 1048900200755 
    1764.19    1766.59        40.                                 1048900200756 
    1766.59    1768.99        33.                                 1048900200757 
    1768.99    1771.38        62.                                 1048900200758 
    1771.38    1773.78        58.                                 1048900200759 
    1773.78    1776.18        44.                                 1048900200760 
    1776.18    1778.57        40.                                 1048900200761 
    1778.57    1780.97        33.                                 1048900200762 
    1780.97    1783.37        40.                                 1048900200763 
    1783.37    1785.76        33.                                 1048900200764 
    1785.76    1788.16        40.                                 1048900200765 
    1788.16    1790.56        44.                                 1048900200766 
    1790.56    1792.96        25.                                 1048900200767 
    1792.96    1795.35        40.                                 1048900200768 
    1795.35    1797.75        58.                                 1048900200769 
    1797.75    1800.15        51.                                 1048900200770 
    1800.15    1802.54        51.                                 1048900200771 
    1802.54    1804.94        44.                                 1048900200772 
    1804.94    1807.34        47.                                 1048900200773 
    1807.34    1809.73        36.                                 1048900200774 
    1809.73    1812.13        25.                                 1048900200775 
    1812.13    1814.53        77.                                 1048900200776 
    1814.53    1816.93        36.                                 1048900200777 
    1816.93    1819.32        29.                                 1048900200778 
    1819.32    1821.72        40.                                 1048900200779 
    1821.72    1824.12        55.                                 1048900200780 
    1824.12    1826.51        47.                                 1048900200781 
    1826.51    1828.91        22.                                 1048900200782 
    1828.91    1831.31        40.                                 1048900200783 
    1831.31    1833.70        44.                                 1048900200784 
    1833.70    1836.10        40.                                 1048900200785 
    1836.10    1838.50        47.                                 1048900200786 
    1838.50    1840.90        51.                                 1048900200787 
    1840.90    1843.29        51.                                 1048900200788 
    1843.29    1845.69        47.                                 1048900200789 
    1845.69    1848.09        55.                                 1048900200790 
    1848.09    1850.48        36.                                 1048900200791 
    1850.48    1852.88        29.                                 1048900200792 
    1852.88    1855.28        25.                                 1048900200793 
    1855.28    1857.67        29.                                 1048900200794 
    1857.67    1860.07        22.                                 1048900200795 
    1860.07    1862.47        29.                                 1048900200796 
    1862.47    1864.87        29.                                 1048900200797 
    1864.87    1867.26        14.                                 1048900200798 
    1867.26    1869.66        29.                                 1048900200799 
    1869.66    1872.06        36.                                 1048900200800 
    1872.06    1874.45        44.                                 1048900200801 
    1874.45    1876.85        29.                                 1048900200802 
    1876.85    1879.25        22.                                 1048900200803 
    1879.25    1881.64        29.                                 1048900200804 
    1881.64    1884.04        33.                                 1048900200805 
    1884.04    1886.44        14.                                 1048900200806 
    1886.44    1888.84        36.                                 1048900200807 
    1888.84    1891.23        36.                                 1048900200808 
    1891.23    1893.63        44.                                 1048900200809 
    1893.63    1896.03        14.                                 1048900200810 
    1896.03    1898.42         7.                                 1048900200811 
    1898.42    1900.82        40.                                 1048900200812 
    1900.82    1903.22        14.                                 1048900200813 
    1903.22    1905.61        18.                                 1048900200814 
    1905.61    1908.01        40.                                 1048900200815 
    1908.01    1910.41        25.                                 1048900200816 
    1910.41    1912.81        36.                                 1048900200817 
    1912.81    1915.20        29.                                 1048900200818 
    1915.20    1917.60        25.                                 1048900200819 
    1917.60    1920.00        25.                                 1048900200820 
    1920.00    1922.39        44.                                 1048900200821 
    1922.39    1924.79        33.                                 1048900200822 
    1924.79    1927.19        29.                                 1048900200823 
    1927.19    1929.58        44.                                 1048900200824 
    1929.58    1931.98        22.                                 1048900200825 
    1931.98    1934.38        29.                                 1048900200826 
    1934.38    1936.78        14.                                 1048900200827 
    1936.78    1939.17        33.                                 1048900200828 
    1939.17    1941.57        22.                                 1048900200829 
    1941.57    1943.97        25.                                 1048900200830 
    1943.97    1946.36        33.                                 1048900200831 
    1946.36    1948.76        55.                                 1048900200832 
    1948.76    1951.16        33.                                 1048900200833 
    1951.16    1953.55        25.                                 1048900200834 
    1953.55    1955.95        22.                                 1048900200835 
    1955.95    1958.35        22.                                 1048900200836 
    1958.35    1960.75        29.                                 1048900200837 
    1960.75    1963.14        25.                                 1048900200838 
    1963.14    1965.54        29.                                 1048900200839 
    1965.54    1967.94        29.                                 1048900200840 
    1967.94    1970.33        25.                                 1048900200841 
    1970.33    1972.73        33.                                 1048900200842 
    1972.73    1975.13        25.                                 1048900200843 
    1975.13    1977.52        18.                                 1048900200844 
    1977.52    1979.92        25.                                 1048900200845 
    1979.92    1982.32        11.                                 1048900200846 
    1982.32    1984.72        44.                                 1048900200847 
    1984.72    1987.11        29.                                 1048900200848 
    1987.11    1989.51        14.                                 1048900200849 
    1989.51    1991.91        33.                                 1048900200850 
    1991.91    1994.30        14.                                 1048900200851 
    1994.30    1996.70        14.                                 1048900200852 
    1996.70    1999.10         7.                                 1048900200853 
    1999.10    2001.49        14.                                 1048900200854 
    2001.49    2003.89        18.                                 1048900200855 
    2003.89    2006.29        33.                                 1048900200856 
    2006.29    2008.69        18.                                 1048900200857 
    2008.69    2011.08         7.                                 1048900200858 
    2011.08    2013.48        11.                                 1048900200859 
    2013.48    2015.88        29.                                 1048900200860 
    2015.88    2018.27        18.                                 1048900200861 
    2018.27    2020.67        14.                                 1048900200862 
    2020.67    2023.07        14.                                 1048900200863 
    2023.07    2025.46        14.                                 1048900200864 
    2025.46    2027.86        22.                                 1048900200865 
    2027.86    2030.26        18.                                 1048900200866 
    2030.26    2032.66        11.                                 1048900200867 
    2032.66    2035.05        29.                                 1048900200868 
    2035.05    2037.45        29.                                 1048900200869 
    2037.45    2039.85        18.                                 1048900200870 
    2039.85    2042.24        25.                                 1048900200871 
    2042.24    2044.64        25.                                 1048900200872 
    2044.64    2047.04        36.                                 1048900200873 
    2047.04    2049.43        22.                                 1048900200874 
    2049.43    2051.83        25.                                 1048900200875 
    2051.83    2054.23        22.                                 1048900200876 
    2054.23    2056.63        40.                                 1048900200877 
    2056.63    2059.02        11.                                 1048900200878 
    2059.02    2061.42        33.                                 1048900200879 
    2061.42    2063.82        14.                                 1048900200880 
    2063.82    2066.21        18.                                 1048900200881 
    2066.21    2068.61        11.                                 1048900200882 
    2068.61    2071.01         7.                                 1048900200883 
    2071.01    2073.40        18.                                 1048900200884 
    2073.40    2075.80        25.                                 1048900200885 
    2075.80    2078.20        18.                                 1048900200886 
    2078.20    2080.60        18.                                 1048900200887 
    2080.60    2082.99        11.                                 1048900200888 
    2082.99    2085.39        22.                                 1048900200889 
    2085.39    2087.79        14.                                 1048900200890 
    2087.79    2090.18        14.                                 1048900200891 
    2090.18    2092.58        33.                                 1048900200892 
    2092.58    2094.98        18.                                 1048900200893 
    2094.98    2097.38        14.                                 1048900200894 
    2097.38    2099.77        22.                                 1048900200895 
    2099.77    2102.17        29.                                 1048900200896 
    2102.17    2104.57        22.                                 1048900200897 
    2104.57    2106.96        14.                                 1048900200898 
    2106.96    2109.36        11.                                 1048900200899 
    2109.36    2111.76        25.                                 1048900200900 
    2111.76    2114.15        14.                                 1048900200901 
    2114.15    2116.55        18.                                 1048900200902 
    2116.55    2118.95        25.                                 1048900200903 
    2118.95    2121.35        22.                                 1048900200904 
    2121.35    2123.74        18.                                 1048900200905 
    2123.74    2126.14        25.                                 1048900200906 
    2126.14    2128.54        25.                                 1048900200907 
    2128.54    2130.93        14.                                 1048900200908 
    2130.93    2133.33        18.                                 1048900200909 
    2133.33    2135.73        22.                                 1048900200910 
    2135.73    2138.12         7.                                 1048900200911 
    2138.12    2140.52        33.                                 1048900200912 
    2140.52    2142.92        22.                                 1048900200913 
    2142.92    2145.31        29.                                 1048900200914 
    2145.31    2147.71        22.                                 1048900200915 
    2147.71    2150.11        18.                                 1048900200916 
    2150.11    2152.51         7.                                 1048900200917 
    2152.51    2154.90        25.                                 1048900200918 
    2154.90    2157.30        18.                                 1048900200919 
    2157.30    2159.70         3.                                 1048900200920 
    2159.70    2162.09        14.                                 1048900200921 
    2162.09    2164.49         3.                                 1048900200922 
    2164.49    2166.89        14.                                 1048900200923 
    2166.89    2169.28        18.                                 1048900200924 
    2169.28    2171.68        18.                                 1048900200925 
    2171.68    2174.08        14.                                 1048900200926 
    2174.08    2176.48         3.                                 1048900200927 
    2176.48    2178.87        14.                                 1048900200928 
    2178.87    2181.27        22.                                 1048900200929 
    2181.27    2183.67        14.                                 1048900200930 
    2183.67    2186.06        36.                                 1048900200931 
    2186.06    2188.46        14.                                 1048900200932 
    2188.46    2190.86        25.                                 1048900200933 
    2190.86    2193.25        11.                                 1048900200934 
    2193.25    2195.65        11.                                 1048900200935 
    2195.65    2198.05        14.                                 1048900200936 
    2198.05    2200.45        14.                                 1048900200937 
    2200.45    2202.84         7.                                 1048900200938 
    2202.84    2205.24        11.                                 1048900200939 
    2205.24    2207.64        11.                                 1048900200940 
    2207.64    2210.03         7.                                 1048900200941 
    2210.03    2212.43        22.                                 1048900200942 
    2212.43    2214.83         0.                                 1048900200943 
    2214.83    2217.22        11.                                 1048900200944 
    2217.22    2219.62        18.                                 1048900200945 
    2219.62    2222.02         7.                                 1048900200946 
    2222.02    2224.42         3.                                 1048900200947 
    2224.42    2226.81        11.                                 1048900200948 
    2226.81    2229.21        11.                                 1048900200949 
    2229.21    2231.61        22.                                 1048900200950 
    2231.61    2234.00         3.                                 1048900200951 
    2234.00    2236.40         7.                                 1048900200952 
    2236.40    2238.80        11.                                 1048900200953 
    2238.80    2241.19        14.                                 1048900200954 
    2241.19    2243.59        18.                                 1048900200955 
    2243.59    2245.99        11.                                 1048900200956 
    2245.99    2248.39        14.                                 1048900200957 
    2248.39    2250.78        14.                                 1048900200958 
    2250.78    2253.18         0.                                 1048900200959 
    2253.18    2255.58         7.                                 1048900200960 
    2255.58    2257.97        22.                                 1048900200961 
    2257.97    2260.37         0.                                 1048900200962 
    2260.37    2262.77         3.                                 1048900200963 
    2262.77    2265.16         7.                                 1048900200964 
    2265.16    2267.56        36.                                 1048900200965 
    2267.56    2269.96        11.                                 1048900200966 
    2269.96    2272.36        11.                                 1048900200967 
    2272.36    2274.75         7.                                 1048900200968 
    2274.75    2277.15        11.                                 1048900200969 
    2277.15    2279.55        18.                                 1048900200970 
    2279.55    2281.94        22.                                 1048900200971 
    2281.94    2284.34         7.                                 1048900200972 
    2284.34    2286.74         7.                                 1048900200973 
    2286.74    2289.13        22.                                 1048900200974 
    2289.13    2291.53         3.                                 1048900200975 
    2291.53    2293.93        18.                                 1048900200976 
    2293.93    2296.33         7.                                 1048900200977 
    2296.33    2298.72         7.                                 1048900200978 
    2298.72    2301.12        14.                                 1048900200979 
    2301.12    2303.52         3.                                 1048900200980 
    2303.52    2305.91        14.                                 1048900200981 
    2305.91    2308.31        22.                                 1048900200982 
    2308.31    2310.71        14.                                 1048900200983 
    2310.71    2313.10        11.                                 1048900200984 
    2313.10    2315.50         0.                                 1048900200985 
    2315.50    2317.90        25.                                 1048900200986 
    2317.90    2320.30         7.                                 1048900200987 
    2320.30    2322.69         7.                                 1048900200988 
    2322.69    2325.09        11.                                 1048900200989 
    2325.09    2327.49        11.                                 1048900200990 
    2327.49    2329.88        11.                                 1048900200991 
    2329.88    2332.28        11.                                 1048900200992 
    2332.28    2334.68         3.                                 1048900200993 
    2334.68    2337.07        14.                                 1048900200994 
    2337.07    2339.47         7.                                 1048900200995 
    2339.47    2341.87        11.                                 1048900200996 
    2341.87    2344.27         7.                                 1048900200997 
    2344.27    2346.66        22.                                 1048900200998 
    2346.66    2349.06         7.                                 1048900200999 
    2349.06    2351.46        11.                                 1048900201000 
    2351.46    2353.85        11.                                 1048900201001 
    2353.85    2356.25        18.                                 1048900201002 
    2356.25    2358.65         3.                                 1048900201003 
    2358.65    2361.04         7.                                 1048900201004 
    2361.04    2363.44        11.                                 1048900201005 
    2363.44    2365.84         7.                                 1048900201006 
    2365.84    2368.24         0.                                 1048900201007 
    2368.24    2370.63        11.                                 1048900201008 
    2370.63    2373.03         3.                                 1048900201009 
    2373.03    2375.43        11.                                 1048900201010 
    2375.43    2377.82         0.                                 1048900201011 
    2377.82    2380.22        14.                                 1048900201012 
    2380.22    2382.62        11.                                 1048900201013 
    2382.62    2385.01         3.                                 1048900201014 
    2385.01    2387.41         7.                                 1048900201015 
    2387.41    2389.81         7.                                 1048900201016 
    2389.81    2392.21         7.                                 1048900201017 
    2392.21    2394.60        14.                                 1048900201018 
    2394.60    2397.00         3.                                 1048900201019 
    2397.00    2399.40        14.                                 1048900201020 
    2399.40    2401.79        11.                                 1048900201021 
    2401.79    2404.19         0.                                 1048900201022 
    2404.19    2406.59         3.                                 1048900201023 
    2406.59    2408.98         7.                                 1048900201024 
    2408.98    2411.38         7.                                 1048900201025 
    2411.38    2413.78        11.                                 1048900201026 
    2413.78    2416.18         7.                                 1048900201027 
    2416.18    2418.57         7.                                 1048900201028 
    2418.57    2420.97         3.                                 1048900201029 
    2420.97    2423.37         7.                                 1048900201030 
    2423.37    2425.76         7.                                 1048900201031 
    2425.76    2428.16         0.                                 1048900201032 
    2428.16    2430.56         3.                                 1048900201033 
    2430.56    2432.95         7.                                 1048900201034 
    2432.95    2435.35         7.                                 1048900201035 
    2435.35    2437.75         7.                                 1048900201036 
    2437.75    2440.15        11.                                 1048900201037 
    2440.15    2442.54        18.                                 1048900201038 
    2442.54    2444.94         3.                                 1048900201039 
    2444.94    2447.34         0.                                 1048900201040 
    2447.34    2449.73         3.                                 1048900201041 
    2449.73    2452.13         0.                                 1048900201042 
    2452.13    2454.53        11.                                 1048900201043 
    2454.53    2456.92         7.                                 1048900201044 
    2456.92    2459.32        14.                                 1048900201045 
    2459.32    2461.72        14.                                 1048900201046 
    2461.72    2464.12         7.                                 1048900201047 
    2464.12    2466.51         0.                                 1048900201048 
    2466.51    2468.91         0.                                 1048900201049 
    2468.91    2471.31        14.                                 1048900201050 
    2471.31    2473.70         3.                                 1048900201051 
    2473.70    2476.10         0.                                 1048900201052 
    2476.10    2478.50        14.                                 1048900201053 
    2478.50    2480.89         7.                                 1048900201054 
    2480.89    2483.29         0.                                 1048900201055 
    2483.29    2485.69         7.                                 1048900201056 
    2485.69    2488.09        14.                                 1048900201057 
    2488.09    2490.48        22.                                 1048900201058 
    2490.48    2492.88         3.                                 1048900201059 
    2492.88    2495.28         3.                                 1048900201060 
    2495.28    2497.67        18.                                 1048900201061 
    2497.67    2500.07         3.                                 1048900201062 
    2500.07    2502.47         3.                                 1048900201063 
    2502.47    2504.86         7.                                 1048900201064 
    2504.86    2507.26         3.                                 1048900201065 
    2507.26    2509.66        11.                                 1048900201066 
    2509.66    2512.06        18.                                 1048900201067 
    2512.06    2514.45         3.                                 1048900201068 
    2514.45    2516.85         0.                                 1048900201069 
    2516.85    2519.25         3.                                 1048900201070 
    2519.25    2521.64        11.                                 1048900201071 
    2521.64    2524.04        11.                                 1048900201072 
    2524.04    2526.44        11.                                 1048900201073 
    2526.44    2528.83        14.                                 1048900201074 
    2528.83    2531.23         7.                                 1048900201075 
    2531.23    2533.63         3.                                 1048900201076 
    2533.63    2536.03         0.                                 1048900201077 
    2536.03    2538.42         7.                                 1048900201078 
    2538.42    2540.82         7.                                 1048900201079 
    2540.82    2543.22         7.                                 1048900201080 
    2543.22    2545.61         7.                                 1048900201081 
    2545.61    2548.01         3.                                 1048900201082 
    2548.01    2550.41        11.                                 1048900201083 
    2550.41    2552.80        14.                                 1048900201084 
    2552.80    2555.20        11.                                 1048900201085 
    2555.20    2557.60         0.                                 1048900201086 
    2557.60    2560.00         0.                                 1048900201087 
    2560.00    2562.39         3.                                 1048900201088 
    2562.39    2564.79         7.                                 1048900201089 
    2564.79    2567.19         7.                                 1048900201090 
    2567.19    2569.58         0.                                 1048900201091 
    2569.58    2571.98         0.                                 1048900201092 
    2571.98    2574.38         0.                                 1048900201093 
    2574.38    2576.77         3.                                 1048900201094 
    2576.77    2579.17         3.                                 1048900201095 
    2579.17    2581.57         7.                                 1048900201096 
    2581.57    2583.97         0.                                 1048900201097 
    2583.97    2586.36         3.                                 1048900201098 
    2586.36    2588.76        14.                                 1048900201099 
    2588.76    2591.16         3.                                 1048900201100 
    2591.16    2593.55         3.                                 1048900201101 
    2593.55    2595.95         0.                                 1048900201102 
    2595.95    2598.35         3.                                 1048900201103 
    2598.35    2600.74         3.                                 1048900201104 
    2600.74    2603.14         0.                                 1048900201105 
    2603.14    2605.54        14.                                 1048900201106 
    2605.54    2607.94         7.                                 1048900201107 
    2607.94    2610.33        14.                                 1048900201108 
    2610.33    2612.73         3.                                 1048900201109 
    2612.73    2615.13         0.                                 1048900201110 
    2615.13    2617.52         0.                                 1048900201111 
    2617.52    2619.92         7.                                 1048900201112 
    2619.92    2622.32         0.                                 1048900201113 
    2622.32    2624.71         0.                                 1048900201114 
    2624.71    2627.11         3.                                 1048900201115 
    2627.11    2629.51         3.                                 1048900201116 
    2629.51    2631.91        11.                                 1048900201117 
    2631.91    2634.30         3.                                 1048900201118 
    2634.30    2636.70        11.                                 1048900201119 
    2636.70    2639.10         0.                                 1048900201120 
    2639.10    2641.49         3.                                 1048900201121 
    2641.49    2643.89         7.                                 1048900201122 
    2643.89    2646.29        14.                                 1048900201123 
    2646.29    2648.68         7.                                 1048900201124 
    2648.68    2651.08         7.                                 1048900201125 
    2651.08    2653.48         3.                                 1048900201126 
    2653.48    2655.88         3.                                 1048900201127 
    2655.88    2658.27         0.                                 1048900201128 
    2658.27    2660.67        18.                                 1048900201129 
    2660.67    2663.07         7.                                 1048900201130 
    2663.07    2665.46         0.                                 1048900201131 
    2665.46    2667.86         0.                                 1048900201132 
    2667.86    2670.26         0.                                 1048900201133 
    2670.26    2672.65         0.                                 1048900201134 
    2672.65    2675.05         0.                                 1048900201135 
    2675.05    2677.45         3.                                 1048900201136 
    2677.45    2679.85         3.                                 1048900201137 
    2679.85    2682.24         0.                                 1048900201138 
    2682.24    2684.64         0.                                 1048900201139 
    2684.64    2687.04         7.                                 1048900201140 
    2687.04    2689.43         0.                                 1048900201141 
    2689.43    2691.83        11.                                 1048900201142 
    2691.83    2694.23        11.                                 1048900201143 
    2694.23    2696.62        11.                                 1048900201144 
    2696.62    2699.02         7.                                 1048900201145 
    2699.02    2701.42         7.                                 1048900201146 
    2701.42    2703.82         7.                                 1048900201147 
    2703.82    2706.21         0.                                 1048900201148 
    2706.21    2708.61         7.                                 1048900201149 
    2708.61    2711.01         7.                                 1048900201150 
    2711.01    2713.40        14.                                 1048900201151 
    2713.40    2715.80         7.                                 1048900201152 
    2715.80    2718.20         7.                                 1048900201153 
    2718.20    2720.59         0.                                 1048900201154 
    2720.59    2722.99         3.                                 1048900201155 
    2722.99    2725.39         7.                                 1048900201156 
    2725.39    2727.79         7.                                 1048900201157 
    2727.79    2730.18         0.                                 1048900201158 
    2730.18    2732.58         0.                                 1048900201159 
    2732.58    2734.98         3.                                 1048900201160 
    2734.98    2737.37         0.                                 1048900201161 
    2737.37    2739.77         0.                                 1048900201162 
    2739.77    2742.17        14.                                 1048900201163 
    2742.17    2744.56         0.                                 1048900201164 
    2744.56    2746.96         3.                                 1048900201165 
    2746.96    2749.36         3.                                 1048900201166 
    2749.36    2751.76         3.                                 1048900201167 
    2751.76    2754.15         3.                                 1048900201168 
    2754.15    2756.55         7.                                 1048900201169 
    2756.55    2758.95        14.                                 1048900201170 
    2758.95    2761.34         7.                                 1048900201171 
    2761.34    2763.74         3.                                 1048900201172 
    2763.74    2766.14         7.                                 1048900201173 
    2766.14    2768.53         0.                                 1048900201174 
    2768.53    2770.93         3.                                 1048900201175 
    2770.93    2773.33         7.                                 1048900201176 
    2773.33    2775.73         3.                                 1048900201177 
    2775.73    2778.12         3.                                 1048900201178 
    2778.12    2780.52        11.                                 1048900201179 
    2780.52    2782.92         0.                                 1048900201180 
    2782.92    2785.31        11.                                 1048900201181 
    2785.31    2787.71         3.                                 1048900201182 
    2787.71    2790.11         7.                                 1048900201183 
    2790.11    2792.50         7.                                 1048900201184 
    2792.50    2794.90         3.                                 1048900201185 
    2794.90    2797.30         3.                                 1048900201186 
    2797.30    2799.70         3.                                 1048900201187 
    2799.70    2802.09         3.                                 1048900201188 
    2802.09    2804.49         3.                                 1048900201189 
    2804.49    2806.89         3.                                 1048900201190 
    2806.89    2809.28         3.                                 1048900201191 
    2809.28    2811.68         0.                                 1048900201192 
    2811.68    2814.08         3.                                 1048900201193 
    2814.08    2816.47         3.                                 1048900201194 
    2816.47    2818.87         7.                                 1048900201195 
    2818.87    2821.27         3.                                 1048900201196 
    2821.27    2823.67         7.                                 1048900201197 
    2823.67    2826.06         3.                                 1048900201198 
    2826.06    2828.46         3.                                 1048900201199 
    2828.46    2830.86         3.                                 1048900201200 
    2830.86    2833.25         7.                                 1048900201201 
    2833.25    2835.65         0.                                 1048900201202 
    2835.65    2838.05         0.                                 1048900201203 
    2838.05    2840.44         3.                                 1048900201204 
    2840.44    2842.84         3.                                 1048900201205 
    2842.84    2845.24         3.                                 1048900201206 
    2845.24    2847.64         0.                                 1048900201207 
    2847.64    2850.03         3.                                 1048900201208 
    2850.03    2852.43         3.                                 1048900201209 
    2852.43    2854.83        11.                                 1048900201210 
    2854.83    2857.22         0.                                 1048900201211 
    2857.22    2859.62         7.                                 1048900201212 
    2859.62    2862.02         0.                                 1048900201213 
    2862.02    2864.41         0.                                 1048900201214 
    2864.41    2866.81         0.                                 1048900201215 
    2866.81    2869.21         3.                                 1048900201216 
    2869.21    2871.61         3.                                 1048900201217 
    2871.61    2874.00         7.                                 1048900201218 
    2874.00    2876.40         0.                                 1048900201219 
    2876.40    2878.80         3.                                 1048900201220 
    2878.80    2881.19         0.                                 1048900201221 
    2881.19    2883.59         3.                                 1048900201222 
    2883.59    2885.99         3.                                 1048900201223 
    2885.99    2888.38         3.                                 1048900201224 
    2888.38    2890.78         3.                                 1048900201225 
    2890.78    2893.18        11.                                 1048900201226 
    2893.18    2895.58         0.                                 1048900201227 
    2895.58    2897.97         3.                                 1048900201228 
    2897.97    2900.37         0.                                 1048900201229 
    2900.37    2902.77         3.                                 1048900201230 
    2902.77    2905.16         0.                                 1048900201231 
    2905.16    2907.56         0.                                 1048900201232 
    2907.56    2909.96         0.                                 1048900201233 
    2909.96    2912.35         7.                                 1048900201234 
    2912.35    2914.75         0.                                 1048900201235 
    2914.75    2917.15         3.                                 1048900201236 
    2917.15    2919.55         3.                                 1048900201237 
    2919.55    2921.94         3.                                 1048900201238 
    2921.94    2924.34         7.                                 1048900201239 
    2924.34    2926.74         3.                                 1048900201240 
    2926.74    2929.13         3.                                 1048900201241 
    2929.13    2931.53         3.                                 1048900201242 
    2931.53    2933.93         0.                                 1048900201243 
    2933.93    2936.32         7.                                 1048900201244 
    2936.32    2938.72         0.                                 1048900201245 
    2938.72    2941.12         0.                                 1048900201246 
    2941.12    2943.52         0.                                 1048900201247 
    2943.52    2945.91         0.                                 1048900201248 
    2945.91    2948.31         3.                                 1048900201249 
    2948.31    2950.71         7.                                 1048900201250 
    2950.71    2953.10         3.                                 1048900201251 
    2953.10    2955.50         0.                                 1048900201252 
    2955.50    2957.90         3.                                 1048900201253 
    2957.90    2960.29         7.                                 1048900201254 
    2960.29    2962.69         0.                                 1048900201255 
    2962.69    2965.09         3.                                 1048900201256 
    2965.09    2967.49         0.                                 1048900201257 
    2967.49    2969.88         3.                                 1048900201258 
    2969.88    2972.28         3.                                 1048900201259 
    2972.28    2974.68         3.                                 1048900201260 
    2974.68    2977.07         3.                                 1048900201261 
    2977.07    2979.47         3.                                 1048900201262 
    2979.47    2981.87         0.                                 1048900201263 
    2981.87    2984.26         0.                                 1048900201264 
    2984.26    2986.66         0.                                 1048900201265 
    2986.66    2989.06         0.                                 1048900201266 
    2989.06    2991.46         7.                                 1048900201267 
    2991.46    2993.85         7.                                 1048900201268 
    2993.85    2996.25         3.                                 1048900201269 
    2996.25    2998.65         3.                                 1048900201270 
    2998.65    3001.04         0.                                 1048900201271 
    3001.04    3003.44         3.                                 1048900201272 
    3003.44    3005.84         7.                                 1048900201273 
    3005.84    3008.23         7.                                 1048900201274 
    3008.23    3010.63         3.                                 1048900201275 
    3010.63    3013.03         0.                                 1048900201276 
    3013.03    3015.43         0.                                 1048900201277 
    3015.43    3017.82         0.                                 1048900201278 
    3017.82    3020.22         0.                                 1048900201279 
    3020.22    3022.62         0.                                 1048900201280 
    3022.62    3025.01         0.                                 1048900201281 
    3025.01    3027.41         3.                                 1048900201282 
    3027.41    3029.81         3.                                 1048900201283 
    3029.81    3032.20         3.                                 1048900201284 
    3032.20    3034.60         7.                                 1048900201285 
    3034.60    3037.00         0.                                 1048900201286 
    3037.00    3039.40         0.                                 1048900201287 
    3039.40    3041.79         3.                                 1048900201288 
    3041.79    3044.19         3.                                 1048900201289 
    3044.19    3046.59         3.                                 1048900201290 
    3046.59    3048.98         0.                                 1048900201291 
    3048.98    3051.38         0.                                 1048900201292 
    3051.38    3053.78         3.                                 1048900201293 
    3053.78    3056.17         0.                                 1048900201294 
    3056.17    3058.57         3.                                 1048900201295 
    3058.57    3060.97         3.                                 1048900201296 
    3060.97    3063.37         0.                                 1048900201297 
    3063.37    3065.76         3.                                 1048900201298 
    3065.76    3068.16         3.                                 1048900201299 
    3068.16    3070.56         0.                                 1048900201300 
    3070.56    3072.95         3.                                 1048900201301 
    3072.95    3075.35         0.                                 1048900201302 
    3075.35    3077.75         0.                                 1048900201303 
    3077.75    3080.14         0.                                 1048900201304 
    3080.14    3082.54         0.                                 1048900201305 
    3082.54    3084.94         0.                                 1048900201306 
    3084.94    3087.34         0.                                 1048900201307 
    3087.34    3089.73         3.                                 1048900201308 
    3089.73    3092.13         0.                                 1048900201309 
    3092.13    3094.53         0.                                 1048900201310 
    3094.53    3096.92         0.                                 1048900201311 
    3096.92    3099.32         7.                                 1048900201312 
    3099.32    3101.72         0.                                 1048900201313 
    3101.72    3104.11         0.                                 1048900201314 
    3104.11    3106.51         0.                                 1048900201315 
    3106.51    3108.91         0.                                 1048900201316 
    3108.91    3111.31         7.                                 1048900201317 
    3111.31    3113.70         3.                                 1048900201318 
    3113.70    3116.10         3.                                 1048900201319 
ENDDATA           1302          0                                 1048900201320 
ENDSUBENT         1319          0                                 1048900299999 
ENDENTRY             2          0                                 1048999999999 
