ENTRY            10508   20040427                             13501050800000001 
SUBENT        10508001   20040427                             13501050800100001 
BIB                 13         18                                 1050800100002 
INSTITUTE  (1USACOL)                                              1050800100003 
REFERENCE  (J,PR/C,8,1833,197311)                                 1050800100004 
AUTHOR     (U.N.Singh,H.I.Liou,G.Hacken,M.Slagowitz,F.Rahn,       1050800100005 
           J.Rainwater,W.Makofske,J.B.Garg)                       1050800100006 
TITLE      Neutron Resonance Spectroscopy. XIV. Potassium         1050800100007 
FACILITY   (SYNCH,1USACOL) Nevis Synchrocyclotron                 1050800100008 
INC-SOURCE (EVAP) Evaporation neutrons from lead.                 1050800100009 
SAMPLE     Metallic potassium encased in polyethelene             1050800100010 
METHOD     (TOF) Time-of-flight                                   1050800100011 
DETECTOR   (SCIN) Plastic scintillators for self-indication       1050800100012 
                  measurements                                    1050800100013 
           (NAICR) Sodium-iodide crystals for viewing a boron slab1050800100014 
CORRECTION Data are corrected for background                      1050800100015 
ERR-ANALYS (DATA-ERR) No information on source of uncertainties.  1050800100016 
STATUS     (APRVD) Approved by author 1975/7/11                   1050800100017 
HISTORY    (19750509C)                                            1050800100018 
           (19830823A) Converted to REACTION formalism            1050800100019 
           (20040427A) Updated to new date formats, lower case.   1050800100020 
ENDBIB              18          0                                 1050800100021 
NOCOMMON             0          0                                 1050800100022 
ENDSUBENT           21          0                                 1050800199999 
SUBENT        10508002   20080925                             13501050800200001 
BIB                  2          2                                 1050800200002 
REACTION   (19-K-39(N,EL),,STF)                                   1050800200003 
HISTORY    (20080915A) Energy heading corrected.                  1050800200004 
ENDBIB               2          0                                 1050800200005 
NOCOMMON             0          0                                 1050800200006 
DATA                 5          2                                 1050800200007 
EN-RES-MAX DATA       +DATA-ERR  -DATA-ERR  MOMENTUM L            1050800200008 
KEV        NO-DIM     NO-DIM     NO-DIM     NO-DIM                1050800200009 
102.          1.8 E-04   0.7 E-04   0.5 E-04 1.                   1050800200010 
110.          0.66E-04   0.63E-04   0.30E-04 0.                   1050800200011 
ENDDATA              4          0                                 1050800200012 
ENDSUBENT           11          0                                 1050800299999 
SUBENT        10508003   20080925                             13501050800300001 
BIB                  2          2                                 1050800300002 
REACTION   (19-K-41(N,EL),,STF)                                   1050800300003 
HISTORY    (20080915A) Energy heading corrected.                  1050800300004 
ENDBIB               2          0                                 1050800300005 
NOCOMMON             0          0                                 1050800300006 
DATA                 5          2                                 1050800300007 
EN-RES-MAX DATA       +DATA-ERR  -DATA-ERR  MOMENTUM L            1050800300008 
KEV        NO-DIM     NO-DIM     NO-DIM     NO-DIM                1050800300009 
 40.          0.78E-04   1.08E-04   0.41E-04 0.                   1050800300010 
102.          2.4 E-04   1.3 E-04   0.8 E-04 1.                   1050800300011 
ENDDATA              4          0                                 1050800300012 
ENDSUBENT           11          0                                 1050800399999 
SUBENT        10508004   20040427                             00001050800400001 
BIB                  3          6                                 1050800400002 
REACTION  1(19-K-39(N,0),,EN)                                     1050800400003 
          2(19-K-39(N,EL),,WID,,G)                                1050800400004 
          3(19-K-39(N,0),,L)                                      1050800400005 
          4(19-K-39(N,0),,J)                                      1050800400006 
ANALYSIS   (AREA) Area analysis                                   1050800400007 
CORRECTION Data given have also been corrected for Doppler Effect.1050800400008 
ENDBIB               6          0                                 1050800400009 
NOCOMMON             0          0                                 1050800400010 
DATA                 6         40                                 1050800400011 
DATA      1DATA-ERR  1DATA      2DATA-ERR  2DATA      3DATA      41050800400012 
KEV        KEV        EV         EV         NO-DIM     NO-DIM     1050800400013 
  1.1114   0.0004       0.0068     0.0005   1.                    1050800400014 
  3.2774   0.0011       0.047      0.007    1.                    1050800400015 
  9.3780   0.0095      25.        3.        0.                    1050800400016 
 12.606    0.008        0.61       0.12     1.         1.         1050800400017 
 14.284    0.010        0.38       0.08     1.                    1050800400018 
 15.934    0.011        0.79       0.14     1.         2.         1050800400019 
 15.934    0.011        0.79       0.14     1.         3.         1050800400020 
 25.519    0.023       49.         8.       0.         1.         1050800400021 
 32.19     0.03         1.7        0.4      1.         1.         1050800400022 
 33.30     0.04         9.4        2.0      1.         1.         1050800400023 
 37.49     0.04         5.4        1.1      1.         0.         1050800400024 
 42.61     0.05       300.        30.       0.         2.         1050800400025 
 45.95     0.06        24.         7.       1.         1.         1050800400026 
 52.09     0.07         7.4        2.0      1.                    1050800400027 
 54.55     0.07         9.5        2.5      1.         0.         1050800400028 
 57.83     0.08       430.        40.       0.         2.         1050800400029 
 59.86     0.10        29.         7.       1.         1.         1050800400030 
 59.86     0.10        29.         7.       1.         2.         1050800400031 
 68.76     0.10       490.        60.       1.         1.         1050800400032 
 81.01     0.13        14.         5.       1.         1.         1050800400033 
 87.50     0.14       165.        20.       1.         1.         1050800400034 
 92.91     0.16        17.         4.       1.                    1050800400035 
 96.63     0.17       210.        20.       0.         1.         1050800400036 
 99.10     0.17        68.        15.       1.                    1050800400037 
102.0      0.2         21.         6.       1.                    1050800400038 
108.7      0.2        700.       150.       0.         1.         1050800400039 
118.5      0.3         36.         6.       1.                    1050800400040 
122.5      0.3         16.         4.       1.                    1050800400041 
132.3      0.3        140.        20.       1.         0.         1050800400042 
132.3      0.3        140.        20.       1.         1.         1050800400043 
134.8      0.3         77.        15.       1.         1.         1050800400044 
134.8      0.3         77.        15.       1.         2.         1050800400045 
136.3      0.3         42.        12.       1.                    1050800400046 
143.9      0.3        100.        20.       1.         2.         1050800400047 
153.9      0.4        750.       100.       1.         3.         1050800400048 
162.3      0.4        440.        50.       1.         1.         1050800400049 
162.3      0.4        440.        50.       1.         2.         1050800400050 
177.6      0.4        390.        50.       1.         1.         1050800400051 
188.3      0.5         98.        20.       1.                    1050800400052 
193.1      0.5        350.        70.       0.         1.         1050800400053 
ENDDATA             42          0                                 1050800400054 
ENDSUBENT           53          0                                 1050800499999 
SUBENT        10508005   20040427                             00001050800500001 
BIB                  3          6                                 1050800500002 
REACTION  1(19-K-41(N,0),,EN)                                     1050800500003 
          2(19-K-41(N,EL),,WID,,G)                                1050800500004 
          3(19-K-41(N,0),,L)                                      1050800500005 
          4(19-K-41(N,0),,J)                                      1050800500006 
ANALYSIS   (AREA) Area analysis                                   1050800500007 
CORRECTION Data given have also been corrected for Doppler Effect.1050800500008 
ENDBIB               6          0                                 1050800500009 
NOCOMMON             0          0                                 1050800500010 
DATA                 6         28                                 1050800500011 
DATA      1DATA-ERR  1DATA      2DATA-ERR  2DATA      3DATA      41050800500012 
KEV        KEV        EV         EV         NO-DIM     NO-DIM     1050800500013 
  2.0287   0.0005       0.11       0.02     0.         2.         1050800500014 
  3.2046   0.0010       0.0081     0.0010   1.                    1050800500015 
  4.012                                                           1050800500016 
  5.5363   0.0045       2.6        0.3      0.         1.         1050800500017 
 13.330    0.010        0.20       0.04     1.         1.         1050800500018 
 13.330    0.010        0.20       0.04     1.         2.         1050800500019 
 15.012    0.010        0.16       0.04     1.         1.         1050800500020 
 16.704    0.025        6.0        1.2      0.         2.         1050800500021 
 20.285    0.016        1.0        0.3      1.                    1050800500022 
 24.926    0.022        3.7        0.7      1.                    1050800500023 
 27.083    0.025        0.63       0.15     1.         3.         1050800500024 
 28.308                                                           1050800500025 
 38.56     0.04        28.         5.       0.         2.         1050800500026 
 42.35                                                            1050800500027 
 55.72     0.07         2.7        0.8      1.                    1050800500028 
 58.20                                                            1050800500029 
 63.22                                                            1050800500030 
 67.04                                                            1050800500031 
 70.45                                                            1050800500032 
 75.44     0.12        14.         4.       1.                    1050800500033 
 79.63     0.13        24.         4.       1.                    1050800500034 
 83.39     0.13        12.         4.       1.                    1050800500035 
 91.08     0.15         4.5        2.0      1.                    1050800500036 
 98.40                                                            1050800500037 
100.9      0.2         15.         5.       1.                    1050800500038 
110.3                                                             1050800500039 
115.9      0.3         29.         9.       1.                    1050800500040 
120.7      0.3         14.         3.       1.                    1050800500041 
ENDDATA             30          0                                 1050800500042 
ENDSUBENT           41          0                                 1050800599999 
SUBENT        10508006   20080925                             13501050800600001 
BIB                  5          8                                 1050800600002 
REACTION  1(19-K-0(N,0),,EN)                                      1050800600003 
          2(19-K-0(N,EL),,WID,,G)                                 1050800600004 
          3(19-K-0(N,0),,L)                                       1050800600005 
ANALYSIS   (AREA)                                                 1050800600006 
CORRECTION Data given have also been corrected for Doppler Effect.1050800600007 
FLAG       (1.) Value of resonance width not completely           1050800600008 
             determined; see reference text for explanation.      1050800600009 
HISTORY   2(20080915A) Data error units corrected.                1050800600010 
ENDBIB               8          0                                 1050800600011 
NOCOMMON             0          0                                 1050800600012 
DATA                 6         12                                 1050800600013 
DATA      1DATA-ERR  1DATA      2DATA-ERR  2DATA      3FLAG       1050800600014 
KEV        KEV        EV         EV         NO-DIM     NO-DIM     1050800600015 
 12.138    0.008        0.083      0.015    1.                    1050800600016 
 16.464    0.012        0.08       0.03     1.                    1050800600017 
 78.66     0.12                             1.         1.         1050800600018 
 90.33     0.15                             1.         1.         1050800600019 
104.2      0.2                              1.         1.         1050800600020 
126.9      0.3                              1.         1.         1050800600021 
138.3      0.3                              1.         1.         1050800600022 
146.0      0.3         82.        18.       1.                    1050800600023 
147.4      0.3         57.        14.       1.                    1050800600024 
149.0      0.3                              1.         1.         1050800600025 
184.1      0.5                              1.         1.         1050800600026 
198.8      0.5                              1.         1.         1050800600027 
ENDDATA             14          0                                 1050800600028 
ENDSUBENT           27          0                                 1050800699999 
SUBENT        10508007   20040427                             00001050800700001 
BIB                  1          1                                 1050800700002 
REACTION   (19-K-0(N,TOT),,SIG)                                   1050800700003 
ENDBIB               1          0                                 1050800700004 
NOCOMMON             0          0                                 1050800700005 
DATA                 2       1197                                 1050800700006 
EN         DATA                                                   1050800700007 
EV         B                                                      1050800700008 
   1004.838       2.70                                            1050800700009 
   1033.705       2.72                                            1050800700010 
   1063.834       2.71                                            1050800700011 
   1074.169       2.73                                            1050800700012 
   1084.657       2.75                                            1050800700013 
   1095.299       2.75                                            1050800700014 
   1098.882       2.75                                            1050800700015 
   1102.481       2.90                                            1050800700016 
   1106.099       3.38                                            1050800700017 
   1107.308       3.46                                            1050800700018 
   1108.520       4.24                                            1050800700019 
   1109.733       7.10                                            1050800700020 
   1110.138       7.74                                            1050800700021 
   1110.544      11.50                                            1050800700022 
   1110.950      13.01                                            1050800700023 
   1111.355      14.73                                            1050800700024 
   1111.761       9.82                                            1050800700025 
   1112.167       8.17                                            1050800700026 
   1112.574       7.71                                            1050800700027 
   1112.980       6.26                                            1050800700028 
   1114.609       3.71                                            1050800700029 
   1115.832       3.03                                            1050800700030 
   1117.059       2.83                                            1050800700031 
   1120.748       2.74                                            1050800700032 
   1124.456       2.86                                            1050800700033 
   1128.182       2.81                                            1050800700034 
   1131.927       2.88                                            1050800700035 
   1135.691       2.82                                            1050800700036 
   1139.472       2.88                                            1050800700037 
   1236.230       2.75                                            1050800700038 
   1318.824       2.79                                            1050800700039 
   1384.949       2.71                                            1050800700040 
   1456.175       2.72                                            1050800700041 
   1533.037       2.74                                            1050800700042 
   1616.153       2.69                                            1050800700043 
   1706.215       2.71                                            1050800700044 
   1804.018       2.72                                            1050800700045 
   1910.481       2.70                                            1050800700046 
   1999.939       2.96                                            1050800700047 
   2013.229       3.66                                            1050800700048 
   2017.689       3.82                                            1050800700049 
   2022.165       6.77                                            1050800700050 
   2023.160       8.38                                            1050800700051 
   2025.156      11.81                                            1050800700052 
   2026.655      25.05                                            1050800700053 
   2027.655      34.12                                            1050800700054 
   2028.153      38.18                                            1050800700055 
   2028.653      46.97                                            1050800700056 
   2029.655      27.15                                            1050800700057 
   2031.159      23.52                                            1050800700058 
   2032.662      14.39                                            1050800700059 
   2034.170      11.99                                            1050800700060 
   2035.677       6.88                                            1050800700061 
   2037.188       5.88                                            1050800700062 
   2044.762       4.46                                            1050800700063 
   2049.327       3.74                                            1050800700064 
   2053.908       3.66                                            1050800700065 
   2058.505       3.27                                            1050800700066 
   2067.741       3.00                                            1050800700067 
   2081.716       2.96                                            1050800700068 
   2095.831       2.90                                            1050800700069 
   2110.090       2.85                                            1050800700070 
   2153.755       2.77                                            1050800700071 
   2198.788       2.81                                            1050800700072 
   2245.248       2.84                                            1050800700073 
   2293.196       2.79                                            1050800700074 
   2342.699       2.76                                            1050800700075 
   2393.820       2.76                                            1050800700076 
   2446.632       2.81                                            1050800700077 
   2501.212       2.86                                            1050800700078 
   2557.642       2.81                                            1050800700079 
   2616.001       2.83                                            1050800700080 
   2676.379       2.92                                            1050800700081 
   2738.872       2.98                                            1050800700082 
   2803.584       2.91                                            1050800700083 
   2870.613       2.98                                            1050800700084 
   2940.074       2.92                                            1050800700085 
   3012.087       2.82                                            1050800700086 
   3086.784       2.82                                            1050800700087 
   3164.290       2.87                                            1050800700088 
   3190.772       3.06                                            1050800700089 
   3199.675       3.49                                            1050800700090 
   3202.653       3.99                                            1050800700091 
   3203.642       4.83                                            1050800700092 
   3204.635       5.58                                            1050800700093 
   3205.630       4.22                                            1050800700094 
   3206.625       3.60                                            1050800700095 
   3208.616       3.31                                            1050800700096 
   3217.594       2.77                                            1050800700097 
   3226.604       2.68                                            1050800700098 
   3235.659       2.72                                            1050800700099 
   3244.750       2.80                                            1050800700100 
   3253.881       2.81                                            1050800700101 
   3263.050       2.96                                            1050800700102 
   3266.111       2.86                                            1050800700103 
   3269.182       3.65                                            1050800700104 
   3272.352       5.12                                            1050800700105 
   3275.332      11.16                                            1050800700106 
   3276.359      12.60                                            1050800700107 
   3277.387      16.39                                            1050800700108 
   3278.416      11.09                                            1050800700109 
   3279.439       8.22                                            1050800700110 
   3280.469       7.35                                            1050800700111 
   3281.499       5.52                                            1050800700112 
   3284.591       3.18                                            1050800700113 
   3328.320       2.77                                            1050800700114 
   3415.161       2.71                                            1050800700115 
   3505.450       2.78                                            1050800700116 
   3599.363       2.73                                            1050800700117 
   3697.100       2.70                                            1050800700118 
   3798.873       2.72                                            1050800700119 
   3904.914       2.67                                            1050800700120 
   4015.450       2.77                                            1050800700121 
   4130.742       2.69                                            1050800700122 
   4251.074       2.70                                            1050800700123 
   4376.758       2.66                                            1050800700124 
   4508.078       2.69                                            1050800700125 
   4645.410       2.65                                            1050800700126 
   4789.113       2.68                                            1050800700127 
   4939.590       2.77                                            1050800700128 
   5097.270       2.78                                            1050800700129 
   5151.512       2.79                                            1050800700130 
   5206.625       3.01                                            1050800700131 
   5262.625       3.07                                            1050800700132 
   5319.527       3.51                                            1050800700133 
   5377.367       4.26                                            1050800700134 
   5436.152       5.83                                            1050800700135 
   5455.965       6.85                                            1050800700136 
   5475.883       8.36                                            1050800700137 
   5495.906      10.65                                            1050800700138 
   5502.605      10.77                                            1050800700139 
   5509.316      10.90                                            1050800700140 
   5516.047      10.91                                            1050800700141 
   5522.781      11.67                                            1050800700142 
   5529.527      13.27                                            1050800700143 
   5536.297      15.47                                            1050800700144 
   5543.066      13.67                                            1050800700145 
   5549.852      13.57                                            1050800700146 
   5556.652      13.28                                            1050800700147 
   5563.465      12.29                                            1050800700148 
   5570.285      11.99                                            1050800700149 
   5577.125      10.84                                            1050800700150 
   5583.977       9.74                                            1050800700151 
   5618.410       6.61                                            1050800700152 
   5639.227       5.97                                            1050800700153 
   5660.152       4.80                                            1050800700154 
   5745.059       3.43                                            1050800700155 
   5809.988       3.42                                            1050800700156 
   6011.535       2.92                                            1050800700157 
   6223.762       2.65                                            1050800700158 
   6447.422       2.59                                            1050800700159 
   6683.355       2.53                                            1050800700160 
   6932.484       2.46                                            1050800700161 
   7195.785       2.43                                            1050800700162 
   7474.406       2.38                                            1050800700163 
   7769.527       2.38                                            1050800700164 
   8082.469       2.29                                            1050800700165 
   8414.719       2.22                                            1050800700166 
   8767.875       2.04                                            1050800700167 
   9143.734       4.08                                            1050800700168 
   9230.531       4.95                                            1050800700169 
   9274.398       8.88                                            1050800700170 
   9289.098      14.09                                            1050800700171 
   9303.816      17.26                                            1050800700172 
   9318.590      24.29                                            1050800700173 
   9333.379      36.73                                            1050800700174 
   9348.219      61.43                                            1050800700175 
   9363.090     105.40                                            1050800700176 
   9377.980     139.51                                            1050800700177 
   9392.930     109.70                                            1050800700178 
   9407.891      61.35                                            1050800700179 
   9422.898      51.88                                            1050800700180 
   9437.965      34.07                                            1050800700181 
   9453.043      25.54                                            1050800700182 
   9468.148      19.05                                            1050800700183 
   9483.309      16.16                                            1050800700184 
   9498.504      14.21                                            1050800700185 
   9544.293       9.37                                            1050800700186 
   9590.418       6.97                                            1050800700187 
   9683.684       5.41                                            1050800700188 
   9826.141       4.26                                            1050800700189 
   9971.770       3.91                                            1050800700190 
  10120.645       3.56                                            1050800700191 
  10272.898       3.23                                            1050800700192 
  10428.609       3.31                                            1050800700193 
  10587.883       3.02                                            1050800700194 
  10750.848       2.96                                            1050800700195 
  10917.590       2.95                                            1050800700196 
  11088.242       2.87                                            1050800700197 
  11262.922       2.78                                            1050800700198 
  11441.773       2.79                                            1050800700199 
  11624.906       2.70                                            1050800700200 
  11812.480       2.73                                            1050800700201 
  11876.012       2.75                                            1050800700202 
  11940.070       2.71                                            1050800700203 
  12004.633       2.71                                            1050800700204 
  12026.281       2.73                                            1050800700205 
  12047.969       2.71                                            1050800700206 
  12069.727       2.62                                            1050800700207 
  12091.543       2.74                                            1050800700208 
  12113.430       2.78                                            1050800700209 
  12120.734       2.95                                            1050800700210 
  12128.047       3.21                                            1050800700211 
  12135.352       4.51                                            1050800700212 
  12142.684       3.97                                            1050800700213 
  12150.020       3.08                                            1050800700214 
  12179.402       2.72                                            1050800700215 
  12268.227       2.63                                            1050800700216 
  12335.469       2.65                                            1050800700217 
  12403.281       2.56                                            1050800700218 
  12471.648       2.57                                            1050800700219 
  12540.574       2.69                                            1050800700220 
  12563.688       2.87                                            1050800700221 
  12586.863       3.78                                            1050800700222 
  12594.586       4.50                                            1050800700223 
  12602.344       6.24                                            1050800700224 
  12610.078       8.46                                            1050800700225 
  12617.848       5.88                                            1050800700226 
  12625.605       3.63                                            1050800700227 
  12633.379       3.11                                            1050800700228 
  12656.742       2.67                                            1050800700229 
  12680.180       2.55                                            1050800700230 
  12750.852       2.58                                            1050800700231 
  12822.113       2.60                                            1050800700232 
  12893.973       2.61                                            1050800700233 
  12966.445       2.63                                            1050800700234 
  13039.520       2.58                                            1050800700235 
  13113.230       2.70                                            1050800700236 
  13187.551       2.60                                            1050800700237 
  13262.520       2.65                                            1050800700238 
  13287.656       2.65                                            1050800700239 
  13312.852       3.40                                            1050800700240 
  13321.258       3.69                                            1050800700241 
  13329.688       4.82                                            1050800700242 
  13338.113       4.06                                            1050800700243 
  13346.113       3.68                                            1050800700244 
  13363.473       2.82                                            1050800700245 
  13388.895       2.67                                            1050800700246 
  13414.375       2.62                                            1050800700247 
  13491.277       2.60                                            1050800700248 
  13726.020       2.54                                            1050800700249 
  13966.930       2.56                                            1050800700250 
  14131.074       2.45                                            1050800700251 
  14214.242       2.50                                            1050800700252 
  14242.113       2.56                                            1050800700253 
  14251.430       2.83                                            1050800700254 
  14260.762       3.97                                            1050800700255 
  14270.094       4.08                                            1050800700256 
  14279.430       5.33                                            1050800700257 
  14288.770       5.02                                            1050800700258 
  14298.141       3.66                                            1050800700259 
  14307.508       2.55                                            1050800700260 
  14326.266       2.49                                            1050800700261 
  14468.184       2.55                                            1050800700262 
  14554.340       2.61                                            1050800700263 
  14641.277       2.50                                            1050800700264 
  14728.984       2.43                                            1050800700265 
  14817.484       2.56                                            1050800700266 
  14906.785       2.53                                            1050800700267 
  14936.727       2.56                                            1050800700268 
  14966.770       2.62                                            1050800700269 
  14986.848       3.02                                            1050800700270 
  14996.906       3.07                                            1050800700271 
  15006.953       3.62                                            1050800700272 
  15017.023       3.57                                            1050800700273 
  15027.125       3.07                                            1050800700274 
  15037.223       2.75                                            1050800700275 
  15087.836       2.65                                            1050800700276 
  15272.195       2.51                                            1050800700277 
  15555.141       2.45                                            1050800700278 
  15846.027       2.59                                            1050800700279 
  15878.855       2.65                                            1050800700280 
  15911.777       3.28                                            1050800700281 
  15922.777       4.70                                            1050800700282 
  15933.781       6.48                                            1050800700283 
  15944.813       5.04                                            1050800700284 
  15955.848       4.11                                            1050800700285 
  15966.887       3.33                                            1050800700286 
  16011.176       2.70                                            1050800700287 
  16145.148       2.75                                            1050800700288 
  16246.758       2.80                                            1050800700289 
  16349.301       3.20                                            1050800700290 
  16383.695       3.35                                            1050800700291 
  16418.215       3.47                                            1050800700292 
  16441.270       3.34                                            1050800700293 
  16452.828       4.06                                            1050800700294 
  16464.391       3.46                                            1050800700295 
  16522.395       3.45                                            1050800700296 
  16557.348       4.32                                            1050800700297 
  16592.402       4.45                                            1050800700298 
  16627.574       4.88                                            1050800700299 
  16662.852       5.54                                            1050800700300 
  16698.238       7.25                                            1050800700301 
  16733.754       5.40                                            1050800700302 
  16769.367       5.41                                            1050800700303 
  16805.105       4.85                                            1050800700304 
  16840.965       4.48                                            1050800700305 
  16876.926       4.10                                            1050800700306 
  16985.516       3.16                                            1050800700307 
  17095.148       2.85                                            1050800700308 
  17430.516       2.41                                            1050800700309 
  17775.848       2.42                                            1050800700310 
  18131.543       2.36                                            1050800700311 
  18498.016       2.33                                            1050800700312 
  18875.711       2.29                                            1050800700313 
  19265.098       2.33                                            1050800700314 
  19666.680       2.34                                            1050800700315 
  19803.313       2.39                                            1050800700316 
  19941.398       2.29                                            1050800700317 
  20080.910       2.38                                            1050800700318 
  20127.762       2.47                                            1050800700319 
  20174.754       2.46                                            1050800700320 
  20221.910       2.92                                            1050800700321 
  20237.672       3.26                                            1050800700322 
  20253.453       3.33                                            1050800700323 
  20269.250       4.34                                            1050800700324 
  20285.047       5.05                                            1050800700325 
  20300.895       4.82                                            1050800700326 
  20316.727       3.86                                            1050800700327 
  20332.609       3.05                                            1050800700328 
  20364.402       2.87                                            1050800700329 
  20508.391       2.45                                            1050800700330 
  20949.668       2.22                                            1050800700331 
  21405.355       2.27                                            1050800700332 
  21876.047       2.24                                            1050800700333 
  22362.434       2.24                                            1050800700334 
  22865.254       2.17                                            1050800700335 
  23385.191       2.22                                            1050800700336 
  23923.090       2.35                                            1050800700337 
  24106.520       2.44                                            1050800700338 
  24292.063       2.59                                            1050800700339 
  24479.762       2.83                                            1050800700340 
  24669.645       3.24                                            1050800700341 
  24733.430       3.56                                            1050800700342 
  24797.469       3.89                                            1050800700343 
  24861.750       4.56                                            1050800700344 
  24883.215       4.84                                            1050800700345 
  24904.750       6.04                                            1050800700346 
  24926.285       7.56                                            1050800700347 
  24947.836       6.70                                            1050800700348 
  24969.441       4.50                                            1050800700349 
  24991.063       4.70                                            1050800700350 
  25056.102       4.61                                            1050800700351 
  25121.379       4.55                                            1050800700352 
  25186.918       4.78                                            1050800700353 
  25252.723       4.84                                            1050800700354 
  25318.793       5.46                                            1050800700355 
  25385.102       7.83                                            1050800700356 
  25451.688      19.75                                            1050800700357 
  25518.527      34.29                                            1050800700358 
  25585.645      22.55                                            1050800700359 
  25653.027      12.60                                            1050800700360 
  25720.656       7.66                                            1050800700361 
  25788.559       6.11                                            1050800700362 
  25856.727       5.33                                            1050800700363 
  26062.902       3.89                                            1050800700364 
  26271.516       3.49                                            1050800700365 
  26482.668       3.09                                            1050800700366 
  26696.379       2.80                                            1050800700367 
  26912.676       2.78                                            1050800700368 
  26985.359       2.76                                            1050800700369 
  27033.980       3.07                                            1050800700370 
  27058.340       3.02                                            1050800700371 
  27082.727       3.43                                            1050800700372 
  27107.152       3.25                                            1050800700373 
  27131.625       2.53                                            1050800700374 
  27353.250       2.51                                            1050800700375 
  27577.598       2.52                                            1050800700376 
  28267.441       2.41                                            1050800700377 
  28983.531       2.28                                            1050800700378 
  29727.152       2.19                                            1050800700379 
  30499.785       2.16                                            1050800700380 
  31302.938       2.12                                            1050800700381 
  31577.699       2.10                                            1050800700382 
  31856.691       2.04                                            1050800700383 
  31949.723       2.07                                            1050800700384 
  32043.770       2.06                                            1050800700385 
  32106.680       2.30                                            1050800700386 
  32138.227       2.56                                            1050800700387 
  32169.793       3.12                                            1050800700388 
  32201.395       3.57                                            1050800700389 
  32233.078       2.16                                            1050800700390 
  32264.809       2.12                                            1050800700391 
  32328.359       2.02                                            1050800700392 
  32424.070       1.96                                            1050800700393 
  32713.777       1.90                                            1050800700394 
  33007.363       1.90                                            1050800700395 
  33106.137       1.95                                            1050800700396 
  33205.313       2.17                                            1050800700397 
  33238.484       2.26                                            1050800700398 
  33271.680       4.59                                            1050800700399 
  33304.941       6.81                                            1050800700400 
  33338.250       6.43                                            1050800700401 
  33371.637       3.75                                            1050800700402 
  33405.035       3.01                                            1050800700403 
  33505.578       2.33                                            1050800700404 
  33912.305       2.11                                            1050800700405 
  34222.227       1.87                                            1050800700406 
  34854.918       1.82                                            1050800700407 
  35837.441       1.84                                            1050800700408 
  36862.086       2.15                                            1050800700409 
  37213.395       2.40                                            1050800700410 
  37331.613       2.60                                            1050800700411 
  37371.156       2.80                                            1050800700412 
  37410.754       3.11                                            1050800700413 
  37450.398       3.79                                            1050800700414 
  37490.137       5.67                                            1050800700415 
  37529.910       4.76                                            1050800700416 
  37569.754       3.31                                            1050800700417 
  37609.676       2.94                                            1050800700418 
  37810.203       2.92                                            1050800700419 
  37931.297       2.98                                            1050800700420 
  38052.949       3.33                                            1050800700421 
  38175.211       3.20                                            1050800700422 
  38298.047       3.75                                            1050800700423 
  38421.484       3.82                                            1050800700424 
  38545.516       4.54                                            1050800700425 
  38670.148       3.73                                            1050800700426 
  38795.398       3.24                                            1050800700427 
  38921.230       2.84                                            1050800700428 
  39047.727       2.69                                            1050800700429 
  39430.816       2.37                                            1050800700430 
  39819.586       2.13                                            1050800700431 
  40214.145       1.96                                            1050800700432 
  40614.586       1.83                                            1050800700433 
  41021.063       1.84                                            1050800700434 
  41433.652       2.05                                            1050800700435 
  41852.492       2.98                                            1050800700436 
  41993.547       4.14                                            1050800700437 
  42135.266       6.37                                            1050800700438 
  42277.727      11.54                                            1050800700439 
  42420.922      19.43                                            1050800700440 
  42564.824      29.03                                            1050800700441 
  42612.949      32.34                                            1050800700442 
  42709.477      26.07                                            1050800700443 
  42854.844      17.84                                            1050800700444 
  43000.984      12.10                                            1050800700445 
  43147.887       8.62                                            1050800700446 
  43295.508       6.91                                            1050800700447 
  43443.887       5.84                                            1050800700448 
  43593.051       4.84                                            1050800700449 
  43742.984       4.41                                            1050800700450 
  43893.684       4.32                                            1050800700451 
  44045.145       3.95                                            1050800700452 
  44504.340       3.25                                            1050800700453 
  44970.703       3.06                                            1050800700454 
  45285.727       2.87                                            1050800700455 
  45444.465       2.94                                            1050800700456 
  45604.059       3.14                                            1050800700457 
  45764.484       4.08                                            1050800700458 
  45818.148       4.40                                            1050800700459 
  45871.918       6.05                                            1050800700460 
  45925.754       8.40                                            1050800700461 
  45979.727       8.43                                            1050800700462 
  46033.758       5.31                                            1050800700463 
  46087.895       3.64                                            1050800700464 
  46414.727       2.63                                            1050800700465 
  46911.574       2.42                                            1050800700466 
  47416.406       2.33                                            1050800700467 
  47929.430       2.24                                            1050800700468 
  48450.855       2.17                                            1050800700469 
  48980.828       2.15                                            1050800700470 
  49519.535       2.08                                            1050800700471 
  50067.188       2.09                                            1050800700472 
  50623.961       1.94                                            1050800700473 
  51190.090       1.92                                            1050800700474 
  51765.766       2.04                                            1050800700475 
  51959.785       2.23                                            1050800700476 
  52024.711       2.52                                            1050800700477 
  52089.773       4.25                                            1050800700478 
  52154.918       2.49                                            1050800700479 
  52351.152       2.06                                            1050800700480 
  52946.523       1.84                                            1050800700481 
  53552.184       1.78                                            1050800700482 
  54168.270       1.85                                            1050800700483 
  54376.012       2.14                                            1050800700484 
  54445.512       2.41                                            1050800700485 
  54515.168       3.96                                            1050800700486 
  54584.938       3.99                                            1050800700487 
  54654.836       2.62                                            1050800700488 
  54724.891       2.40                                            1050800700489 
  55006.391       1.65                                            1050800700490 
  55218.988       1.53                                            1050800700491 
  55432.766       1.63                                            1050800700492 
  55504.305       1.64                                            1050800700493 
  55576.004       1.94                                            1050800700494 
  55647.820       2.18                                            1050800700495 
  55719.809       2.47                                            1050800700496 
  55791.879       1.95                                            1050800700497 
  56081.684       1.65                                            1050800700498 
  56300.523       1.88                                            1050800700499 
  56520.688       2.10                                            1050800700500 
  56742.070       2.60                                            1050800700501 
  56964.820       3.92                                            1050800700502 
  57188.816       5.85                                            1050800700503 
  57414.188      10.40                                            1050800700504 
  57640.887      17.60                                            1050800700505 
  57792.770      24.80                                            1050800700506 
  57868.926      23.24                                            1050800700507 
  58098.352      20.01                                            1050800700508 
  58329.086      14.46                                            1050800700509 
  58561.223      10.64                                            1050800700510 
  58794.750       7.63                                            1050800700511 
  59029.688       6.71                                            1050800700512 
  59266.035       6.07                                            1050800700513 
  59503.809       5.89                                            1050800700514 
  59583.363       6.04                                            1050800700515 
  59663.094       6.29                                            1050800700516 
  59742.961       7.73                                            1050800700517 
  59823.031       9.27                                            1050800700518 
  59903.238      10.03                                            1050800700519 
  59983.617       6.08                                            1050800700520 
  60064.172       4.67                                            1050800700521 
  60960.859       3.29                                            1050800700522 
  61709.586       3.07                                            1050800700523 
  62472.145       3.01                                            1050800700524 
  63248.938       2.94                                            1050800700525 
  64040.305       2.80                                            1050800700526 
  64856.617       2.90                                            1050800700527 
  65668.250       3.11                                            1050800700528 
  66505.625       4.11                                            1050800700529 
  67359.125       6.25                                            1050800700530 
  67647.250       7.29                                            1050800700531 
  67937.250       8.93                                            1050800700532 
  68229.125      11.97                                            1050800700533 
  68522.875      13.06                                            1050800700534 
  68818.563      14.10                                            1050800700535 
  69116.063      10.99                                            1050800700536 
  69415.563       8.75                                            1050800700537 
  69717.063       6.61                                            1050800700538 
  70020.438       5.74                                            1050800700539 
  70942.688       3.89                                            1050800700540 
  71883.313       3.02                                            1050800700541 
  72842.750       2.74                                            1050800700542 
  73821.500       2.61                                            1050800700543 
  74820.188       2.67                                            1050800700544 
  75157.500       2.79                                            1050800700545 
  75270.500       2.87                                            1050800700546 
  75383.750       3.00                                            1050800700547 
  75497.188       2.86                                            1050800700548 
  75839.188       2.56                                            1050800700549 
  76879.188       2.25                                            1050800700550 
  77940.688       2.50                                            1050800700551 
  78299.438       2.67                                            1050800700552 
  78419.563       2.79                                            1050800700553 
  78540.000       2.87                                            1050800700554 
  78660.625       2.91                                            1050800700555 
  78781.625       2.84                                            1050800700556 
  79024.375       3.01                                            1050800700557 
  79390.625       3.06                                            1050800700558 
  79513.250       3.18                                            1050800700559 
  79636.188       3.34                                            1050800700560 
  79759.375       3.35                                            1050800700561 
  79882.875       3.11                                            1050800700562 
  80130.813       2.66                                            1050800700563 
  80504.813       2.38                                            1050800700564 
  80755.500       2.58                                            1050800700565 
  80881.375       2.88                                            1050800700566 
  81007.500       3.12                                            1050800700567 
  81133.938       2.41                                            1050800700568 
  81260.625       2.28                                            1050800700569 
  81642.500       2.04                                            1050800700570 
  82027.188       2.18                                            1050800700571 
  82414.563       2.02                                            1050800700572 
  82804.625       2.23                                            1050800700573 
  82935.250       2.42                                            1050800700574 
  83066.188       2.41                                            1050800700575 
  83197.500       2.46                                            1050800700576 
  83329.063       2.77                                            1050800700577 
  83461.000       2.68                                            1050800700578 
  83593.188       2.41                                            1050800700579 
  83991.625       2.12                                            1050800700580 
  84393.000       2.02                                            1050800700581 
  84797.313       1.99                                            1050800700582 
  85204.438       1.89                                            1050800700583 
  85614.563       1.85                                            1050800700584 
  86027.625       1.93                                            1050800700585 
  86443.688       2.11                                            1050800700586 
  86862.750       2.80                                            1050800700587 
  87284.875       5.50                                            1050800700588 
  87426.250       7.19                                            1050800700589 
  87568.063       7.87                                            1050800700590 
  87710.125       6.86                                            1050800700591 
  88138.438       3.51                                            1050800700592 
  88569.938       2.56                                            1050800700593 
  89004.625       2.21                                            1050800700594 
  89442.500       1.97                                            1050800700595 
  89883.563       2.02                                            1050800700596 
  90179.500       2.05                                            1050800700597 
  90328.000       2.22                                            1050800700598 
  90476.813       2.25                                            1050800700599 
  90626.000       2.10                                            1050800700600 
  90775.625       2.08                                            1050800700601 
  90925.625       1.80                                            1050800700602 
  91076.000       2.19                                            1050800700603 
  91226.688       2.03                                            1050800700604 
  91681.063       1.77                                            1050800700605 
  92138.875       1.79                                            1050800700606 
  92600.063       1.99                                            1050800700607 
  92754.625       2.19                                            1050800700608 
  92909.500       2.56                                            1050800700609 
  93064.813       1.71                                            1050800700610 
  93533.000       1.64                                            1050800700611 
  94004.813       1.58                                            1050800700612 
  94480.063       1.52                                            1050800700613 
  94959.063       1.48                                            1050800700614 
  95441.625       1.51                                            1050800700615 
  95927.938       1.94                                            1050800700616 
  96417.938       6.23                                            1050800700617 
  96582.125       8.56                                            1050800700618 
  96746.688       7.90                                            1050800700619 
  96911.688       6.12                                            1050800700620 
  97409.250       3.57                                            1050800700621 
  97910.750       2.97                                            1050800700622 
  98416.000       3.12                                            1050800700623 
  98925.250       4.25                                            1050800700624 
  99095.875       5.36                                            1050800700625 
  99266.938       4.29                                            1050800700626 
  99438.375       3.12                                            1050800700627 
  99955.625       2.35                                            1050800700628 
 100128.939       2.18                                            1050800700629 
 100302.689       2.42                                            1050800700630 
 100476.875       2.41                                            1050800700631 
 100651.500       2.44                                            1050800700632 
 100826.625       2.65                                            1050800700633 
 101002.125       2.65                                            1050800700634 
 101178.189       2.61                                            1050800700635 
 101354.689       2.38                                            1050800700636 
 101531.625       2.28                                            1050800700637 
 101709.064       2.37                                            1050800700638 
 101886.939       2.75                                            1050800700639 
 102065.314       2.85                                            1050800700640 
 102244.000       2.37                                            1050800700641 
 102423.314       2.07                                            1050800700642 
 102603.125       2.03                                            1050800700643 
 102783.314       2.15                                            1050800700644 
 102964.000       2.16                                            1050800700645 
 103145.189       2.26                                            1050800700646 
 103326.875       2.12                                            1050800700647 
 103509.000       1.99                                            1050800700648 
 103691.564       2.12                                            1050800700649 
 103874.689       2.16                                            1050800700650 
 104058.314       2.32                                            1050800700651 
 104242.439       2.48                                            1050800700652 
 104426.939       2.17                                            1050800700653 
 104612.064       2.10                                            1050800700654 
 104797.564       2.08                                            1050800700655 
 104983.625       2.11                                            1050800700656 
 105170.125       2.17                                            1050800700657 
 105357.189       2.27                                            1050800700658 
 105544.689       2.31                                            1050800700659 
 105732.750       2.37                                            1050800700660 
 105921.314       2.39                                            1050800700661 
 106110.314       2.46                                            1050800700662 
 106299.875       2.53                                            1050800700663 
 106490.000       2.60                                            1050800700664 
 106680.500       2.86                                            1050800700665 
 106871.564       2.95                                            1050800700666 
 107063.125       3.26                                            1050800700667 
 107255.314       3.57                                            1050800700668 
 107447.875       3.87                                            1050800700669 
 107641.125       4.44                                            1050800700670 
 107834.750       4.88                                            1050800700671 
 108028.939       5.79                                            1050800700672 
 108223.625       6.45                                            1050800700673 
 108418.875       7.23                                            1050800700674 
 108614.625       7.59                                            1050800700675 
 108810.939       7.25                                            1050800700676 
 109007.814       7.75                                            1050800700677 
 109205.189       6.66                                            1050800700678 
 109403.125       6.24                                            1050800700679 
 109601.564       5.64                                            1050800700680 
 109800.500       5.25                                            1050800700681 
 110000.000       5.01                                            1050800700682 
 110200.064       4.47                                            1050800700683 
 110400.750       4.30                                            1050800700684 
 110601.939       3.93                                            1050800700685 
 110803.625       3.54                                            1050800700686 
 111005.939       3.40                                            1050800700687 
 111208.750       3.09                                            1050800700688 
 111412.064       2.94                                            1050800700689 
 111616.064       2.97                                            1050800700690 
 111820.564       2.86                                            1050800700691 
 112025.564       2.82                                            1050800700692 
 112231.250       2.69                                            1050800700693 
 112437.439       2.73                                            1050800700694 
 112644.189       2.66                                            1050800700695 
 112851.564       2.32                                            1050800700696 
 113059.375       2.33                                            1050800700697 
 113267.875       2.25                                            1050800700698 
 113476.939       2.24                                            1050800700699 
 113686.564       2.33                                            1050800700700 
 113896.875       2.29                                            1050800700701 
 114107.625       2.37                                            1050800700702 
 114319.064       2.23                                            1050800700703 
 114531.000       2.35                                            1050800700704 
 114743.500       2.42                                            1050800700705 
 114956.689       2.28                                            1050800700706 
 115170.375       2.54                                            1050800700707 
 115384.750       2.42                                            1050800700708 
 115599.689       2.48                                            1050800700709 
 115815.250       2.58                                            1050800700710 
 116031.500       2.60                                            1050800700711 
 116248.189       2.40                                            1050800700712 
 116465.564       2.52                                            1050800700713 
 116683.500       2.41                                            1050800700714 
 116902.189       2.37                                            1050800700715 
 117121.250       2.38                                            1050800700716 
 117341.125       2.14                                            1050800700717 
 117561.625       2.05                                            1050800700718 
 117782.689       2.08                                            1050800700719 
 118004.375       2.21                                            1050800700720 
 118226.625       2.54                                            1050800700721 
 118449.625       2.93                                            1050800700722 
 118673.189       2.45                                            1050800700723 
 118897.314       2.14                                            1050800700724 
 119122.189       1.94                                            1050800700725 
 119347.750       1.90                                            1050800700726 
 119573.814       2.04                                            1050800700727 
 119800.689       1.97                                            1050800700728 
 120028.000       2.00                                            1050800700729 
 120256.000       2.14                                            1050800700730 
 120484.875       2.24                                            1050800700731 
 120714.189       2.27                                            1050800700732 
 120944.250       2.30                                            1050800700733 
 121174.814       2.08                                            1050800700734 
 121406.250       1.87                                            1050800700735 
 121638.250       1.95                                            1050800700736 
 121870.750       1.88                                            1050800700737 
 122104.189       1.95                                            1050800700738 
 122338.250       2.09                                            1050800700739 
 122572.875       2.15                                            1050800700740 
 122808.250       1.79                                            1050800700741 
 123044.314       1.76                                            1050800700742 
 123281.000       1.87                                            1050800700743 
 123518.439       1.80                                            1050800700744 
 123756.439       1.75                                            1050800700745 
 123995.250       1.70                                            1050800700746 
 124234.625       1.74                                            1050800700747 
 124474.875       1.70                                            1050800700748 
 124715.689       1.81                                            1050800700749 
 124957.314       1.79                                            1050800700750 
 125199.564       1.83                                            1050800700751 
 125442.500       1.84                                            1050800700752 
 125686.125       1.95                                            1050800700753 
 125930.564       1.92                                            1050800700754 
 126175.689       1.87                                            1050800700755 
 126421.439       1.94                                            1050800700756 
 126668.000       2.26                                            1050800700757 
 126915.314       2.54                                            1050800700758 
 127163.250       2.33                                            1050800700759 
 127412.000       2.25                                            1050800700760 
 127661.375       2.32                                            1050800700761 
 127911.500       2.20                                            1050800700762 
 128162.439       2.18                                            1050800700763 
 128414.064       2.14                                            1050800700764 
 128666.439       2.37                                            1050800700765 
 128919.625       2.26                                            1050800700766 
 129173.500       2.19                                            1050800700767 
 129428.125       2.23                                            1050800700768 
 129683.564       2.20                                            1050800700769 
 129939.564       2.33                                            1050800700770 
 130196.500       2.37                                            1050800700771 
 130454.189       2.50                                            1050800700772 
 130712.689       2.48                                            1050800700773 
 130971.875       2.46                                            1050800700774 
 131231.750       2.63                                            1050800700775 
 131492.563       2.88                                            1050800700776 
 131754.063       3.23                                            1050800700777 
 132016.375       3.85                                            1050800700778 
 132279.375       4.31                                            1050800700779 
 132543.313       3.88                                            1050800700780 
 132808.000       3.00                                            1050800700781 
 133073.500       2.64                                            1050800700782 
 133339.688       2.43                                            1050800700783 
 133606.813       2.35                                            1050800700784 
 133874.563       2.26                                            1050800700785 
 134143.188       2.55                                            1050800700786 
 134412.688       2.87                                            1050800700787 
 134683.000       3.24                                            1050800700788 
 134954.125       3.78                                            1050800700789 
 135226.063       3.25                                            1050800700790 
 135498.813       2.31                                            1050800700791 
 135772.375       2.39                                            1050800700792 
 136046.688       2.60                                            1050800700793 
 136321.875       3.27                                            1050800700794 
 136598.000       2.70                                            1050800700795 
 136875.000       2.22                                            1050800700796 
 137152.750       2.13                                            1050800700797 
 137431.313       2.00                                            1050800700798 
 137710.813       1.90                                            1050800700799 
 137991.125       2.06                                            1050800700800 
 138272.250       2.09                                            1050800700801 
 138554.188       2.18                                            1050800700802 
 138837.063       1.99                                            1050800700803 
 139120.875       1.85                                            1050800700804 
 139405.500       1.76                                            1050800700805 
 139690.938       1.70                                            1050800700806 
 139977.438       1.82                                            1050800700807 
 140264.625       1.77                                            1050800700808 
 140552.625       1.45                                            1050800700809 
 140841.750       1.61                                            1050800700810 
 141131.688       1.62                                            1050800700811 
 141422.500       1.59                                            1050800700812 
 141714.250       1.56                                            1050800700813 
 142006.813       1.79                                            1050800700814 
 142300.375       1.46                                            1050800700815 
 142594.813       1.57                                            1050800700816 
 142890.063       1.68                                            1050800700817 
 143186.375       1.74                                            1050800700818 
 143483.625       2.24                                            1050800700819 
 143781.688       3.70                                            1050800700820 
 144080.750       3.25                                            1050800700821 
 144380.750       2.45                                            1050800700822 
 144681.688       2.14                                            1050800700823 
 144983.563       2.74                                            1050800700824 
 145286.313       2.98                                            1050800700825 
 145590.063       3.15                                            1050800700826 
 145894.750       3.32                                            1050800700827 
 146200.500       3.26                                            1050800700828 
 146507.063       2.46                                            1050800700829 
 146814.625       2.55                                            1050800700830 
 147123.313       2.55                                            1050800700831 
 147432.875       3.04                                            1050800700832 
 147743.250       3.26                                            1050800700833 
 148054.750       2.79                                            1050800700834 
 148367.250       2.36                                            1050800700835 
 148680.750       2.50                                            1050800700836 
 148995.188       3.10                                            1050800700837 
 149310.625       2.65                                            1050800700838 
 149627.188       2.35                                            1050800700839 
 149944.688       2.31                                            1050800700840 
 150263.125       2.45                                            1050800700841 
 150582.625       2.18                                            1050800700842 
 150903.188       2.44                                            1050800700843 
 151224.750       2.55                                            1050800700844 
 151547.313       2.84                                            1050800700845 
 151870.875       3.04                                            1050800700846 
 152195.625       2.94                                            1050800700847 
 152521.313       3.40                                            1050800700848 
 152847.938       4.21                                            1050800700849 
 153175.750       4.82                                            1050800700850 
 153504.500       5.79                                            1050800700851 
 153834.500       6.01                                            1050800700852 
 154165.500       6.27                                            1050800700853 
 154497.563       5.49                                            1050800700854 
 154830.625       4.37                                            1050800700855 
 155164.875       3.88                                            1050800700856 
 155500.000       3.20                                            1050800700857 
 155836.438       3.02                                            1050800700858 
 156173.875       2.83                                            1050800700859 
 156512.438       2.32                                            1050800700860 
 156852.125       2.31                                            1050800700861 
 157192.875       2.04                                            1050800700862 
 157534.750       2.12                                            1050800700863 
 157877.813       1.97                                            1050800700864 
 158221.750       2.12                                            1050800700865 
 158567.063       1.95                                            1050800700866 
 158913.500       2.06                                            1050800700867 
 159261.000       1.97                                            1050800700868 
 159609.688       2.13                                            1050800700869 
 159959.438       2.22                                            1050800700870 
 160310.438       2.09                                            1050800700871 
 160662.438       2.46                                            1050800700872 
 161015.750       2.55                                            1050800700873 
 161370.125       3.25                                            1050800700874 
 161725.688       4.22                                            1050800700875 
 162082.500       4.82                                            1050800700876 
 162440.500       4.54                                            1050800700877 
 162799.563       3.97                                            1050800700878 
 163160.000       3.38                                            1050800700879 
 163521.563       3.02                                            1050800700880 
 163884.188       2.68                                            1050800700881 
 164248.063       2.37                                            1050800700882 
 164613.313       2.11                                            1050800700883 
 164979.688       2.18                                            1050800700884 
 165347.313       2.03                                            1050800700885 
 165716.125       2.27                                            1050800700886 
 166086.250       1.95                                            1050800700887 
 166457.625       1.86                                            1050800700888 
 166830.063       1.81                                            1050800700889 
 167203.813       1.99                                            1050800700890 
 167578.938       1.84                                            1050800700891 
 167955.188       1.78                                            1050800700892 
 168332.813       2.04                                            1050800700893 
 168711.813       1.82                                            1050800700894 
 169091.875       1.79                                            1050800700895 
 169473.375       1.94                                            1050800700896 
 169856.000       1.87                                            1050800700897 
 170240.000       1.95                                            1050800700898 
 170625.375       1.93                                            1050800700899 
 171012.000       2.14                                            1050800700900 
 171400.063       2.19                                            1050800700901 
 171789.375       1.69                                            1050800700902 
 172179.938       1.83                                            1050800700903 
 172571.938       2.10                                            1050800700904 
 172965.063       1.89                                            1050800700905 
 173359.688       1.77                                            1050800700906 
 173755.750       1.63                                            1050800700907 
 174153.000       1.76                                            1050800700908 
 174551.813       1.94                                            1050800700909 
 174951.938       1.87                                            1050800700910 
 175353.313       2.00                                            1050800700911 
 175756.188       2.10                                            1050800700912 
 176160.313       2.46                                            1050800700913 
 176565.875       2.85                                            1050800700914 
 176973.000       3.11                                            1050800700915 
 177381.438       3.79                                            1050800700916 
 177791.250       4.16                                            1050800700917 
 178202.625       3.73                                            1050800700918 
 178615.313       2.70                                            1050800700919 
 179029.438       2.67                                            1050800700920 
 179444.938       2.49                                            1050800700921 
 179861.875       2.27                                            1050800700922 
 180280.500       2.16                                            1050800700923 
 180700.375       2.03                                            1050800700924 
 181121.813       1.95                                            1050800700925 
 181544.750       2.05                                            1050800700926 
 181969.063       2.17                                            1050800700927 
 182395.000       1.98                                            1050800700928 
 182822.188       2.01                                            1050800700929 
 183251.188       1.87                                            1050800700930 
 183681.500       1.92                                            1050800700931 
 184113.438       2.04                                            1050800700932 
 184546.750       1.99                                            1050800700933 
 184981.750       1.66                                            1050800700934 
 185418.313       1.54                                            1050800700935 
 185856.375       1.74                                            1050800700936 
 186295.813       1.62                                            1050800700937 
 186736.938       1.67                                            1050800700938 
 187179.688       1.84                                            1050800700939 
 187624.000       1.82                                            1050800700940 
 188069.938       2.01                                            1050800700941 
 188517.375       2.23                                            1050800700942 
 188966.500       1.92                                            1050800700943 
 189417.125       1.72                                            1050800700944 
 189869.313       1.45                                            1050800700945 
 190323.250       1.59                                            1050800700946 
 190778.813       1.48                                            1050800700947 
 191236.000       1.53                                            1050800700948 
 191694.813       1.64                                            1050800700949 
 192155.313       1.89                                            1050800700950 
 192617.438       2.81                                            1050800700951 
 193081.313       3.50                                            1050800700952 
 193546.625       2.75                                            1050800700953 
 194013.750       2.23                                            1050800700954 
 194482.688       2.05                                            1050800700955 
 194953.313       1.98                                            1050800700956 
 195425.625       1.92                                            1050800700957 
 195899.563       2.00                                            1050800700958 
 196375.313       2.06                                            1050800700959 
 196852.750       1.98                                            1050800700960 
 197331.875       1.76                                            1050800700961 
 197812.750       2.06                                            1050800700962 
 198295.563       2.30                                            1050800700963 
 198780.000       2.74                                            1050800700964 
 199266.313       2.26                                            1050800700965 
 199754.375       2.12                                            1050800700966 
 200244.250       2.23                                            1050800700967 
 200735.938       2.44                                            1050800700968 
 201229.188       2.08                                            1050800700969 
 201724.438       1.97                                            1050800700970 
 202221.563       2.03                                            1050800700971 
 202720.563       2.01                                            1050800700972 
 203221.313       1.91                                            1050800700973 
 203724.000       1.98                                            1050800700974 
 204228.563       1.60                                            1050800700975 
 204735.000       1.64                                            1050800700976 
 205243.125       1.59                                            1050800700977 
 205753.313       1.61                                            1050800700978 
 206265.375       1.61                                            1050800700979 
 206779.500       1.59                                            1050800700980 
 207295.438       1.69                                            1050800700981 
 207813.313       1.67                                            1050800700982 
 208333.063       1.60                                            1050800700983 
 208854.813       1.49                                            1050800700984 
 209378.500       1.68                                            1050800700985 
 209904.063       1.89                                            1050800700986 
 210431.813       1.70                                            1050800700987 
 210961.438       1.63                                            1050800700988 
 211493.125       1.84                                            1050800700989 
 212026.875       2.07                                            1050800700990 
 212562.500       2.37                                            1050800700991 
 213100.313       2.50                                            1050800700992 
 213640.125       1.95                                            1050800700993 
 214181.750       1.65                                            1050800700994 
 214725.688       1.60                                            1050800700995 
 215271.688       1.58                                            1050800700996 
 215819.688       1.66                                            1050800700997 
 216369.875       1.62                                            1050800700998 
 216922.125       1.54                                            1050800700999 
 217476.563       1.59                                            1050800701000 
 218033.063       1.69                                            1050800701001 
 218591.563       1.82                                            1050800701002 
 219152.313       1.85                                            1050800701003 
 219715.313       1.99                                            1050800701004 
 220280.313       1.55                                            1050800701005 
 220847.813       1.49                                            1050800701006 
 221417.313       1.63                                            1050800701007 
 221989.063       1.60                                            1050800701008 
 222562.938       1.76                                            1050800701009 
 223138.813       1.92                                            1050800701010 
 223717.313       2.29                                            1050800701011 
 224297.875       2.61                                            1050800701012 
 224880.875       2.03                                            1050800701013 
 225466.063       1.67                                            1050800701014 
 226053.500       1.66                                            1050800701015 
 226643.313       1.65                                            1050800701016 
 227235.438       1.79                                            1050800701017 
 227829.625       1.91                                            1050800701018 
 228426.375       2.32                                            1050800701019 
 229025.438       2.72                                            1050800701020 
 229626.875       1.98                                            1050800701021 
 230230.750       1.74                                            1050800701022 
 230836.938       1.53                                            1050800701023 
 231445.500       1.40                                            1050800701024 
 232056.625       1.44                                            1050800701025 
 232669.875       1.57                                            1050800701026 
 233285.688       1.43                                            1050800701027 
 233904.125       1.44                                            1050800701028 
 234524.813       1.34                                            1050800701029 
 235148.063       1.35                                            1050800701030 
 235773.813       1.36                                            1050800701031 
 236402.125       1.32                                            1050800701032 
 237032.875       1.38                                            1050800701033 
 237665.938       1.25                                            1050800701034 
 238301.750       1.20                                            1050800701035 
 238940.188       1.28                                            1050800701036 
 239581.188       1.38                                            1050800701037 
 240224.750       1.38                                            1050800701038 
 240870.875       1.39                                            1050800701039 
 241519.563       1.49                                            1050800701040 
 242170.938       1.70                                            1050800701041 
 242824.750       1.80                                            1050800701042 
 243481.375       2.47                                            1050800701043 
 244140.813       3.85                                            1050800701044 
 244802.750       4.48                                            1050800701045 
 245467.438       3.79                                            1050800701046 
 246134.875       3.60                                            1050800701047 
 246805.063       3.29                                            1050800701048 
 247477.938       2.74                                            1050800701049 
 248153.313       2.76                                            1050800701050 
 248831.813       2.99                                            1050800701051 
 249513.000       3.15                                            1050800701052 
 250196.938       2.46                                            1050800701053 
 250883.875       2.02                                            1050800701054 
 251573.500       2.13                                            1050800701055 
 252265.938       1.88                                            1050800701056 
 252961.375       1.83                                            1050800701057 
 253659.313       1.57                                            1050800701058 
 254360.563       1.63                                            1050800701059 
 255064.500       1.78                                            1050800701060 
 255771.438       1.72                                            1050800701061 
 256481.375       1.54                                            1050800701062 
 257194.313       1.58                                            1050800701063 
 257910.063       1.69                                            1050800701064 
 258629.000       1.86                                            1050800701065 
 259350.563       2.19                                            1050800701066 
 260075.438       2.00                                            1050800701067 
 260803.313       2.05                                            1050800701068 
 261534.438       2.28                                            1050800701069 
 262268.438       1.82                                            1050800701070 
 263005.563       2.00                                            1050800701071 
 263745.813       1.97                                            1050800701072 
 264489.250       1.90                                            1050800701073 
 265235.563       1.73                                            1050800701074 
 265985.250       1.97                                            1050800701075 
 266738.188       1.99                                            1050800701076 
 267494.188       1.75                                            1050800701077 
 268253.500       1.69                                            1050800701078 
 269016.125       1.81                                            1050800701079 
 269781.875       1.84                                            1050800701080 
 270551.000       2.00                                            1050800701081 
 271323.125       1.92                                            1050800701082 
 272098.813       1.99                                            1050800701083 
 272877.813       2.06                                            1050800701084 
 273660.188       2.10                                            1050800701085 
 274445.813       2.19                                            1050800701086 
 275235.000       2.12                                            1050800701087 
 276027.563       2.24                                            1050800701088 
 276823.500       2.35                                            1050800701089 
 277622.625       2.42                                            1050800701090 
 278425.563       2.84                                            1050800701091 
 279231.875       3.33                                            1050800701092 
 280041.813       3.19                                            1050800701093 
 280855.188       3.04                                            1050800701094 
 281672.125       3.05                                            1050800701095 
 282492.688       3.60                                            1050800701096 
 283316.750       3.69                                            1050800701097 
 284144.188       3.88                                            1050800701098 
 284975.563       4.11                                            1050800701099 
 285810.563       4.54                                            1050800701100 
 286649.250       4.12                                            1050800701101 
 287491.563       4.60                                            1050800701102 
 288337.688       4.93                                            1050800701103 
 289187.563       5.13                                            1050800701104 
 290041.188       5.91                                            1050800701105 
 290898.250       5.29                                            1050800701106 
 291759.500       4.80                                            1050800701107 
 292624.438       4.16                                            1050800701108 
 293493.375       3.77                                            1050800701109 
 294366.063       3.64                                            1050800701110 
 295242.750       3.75                                            1050800701111 
 296123.375       3.50                                            1050800701112 
 297007.750       2.78                                            1050800701113 
 297896.063       2.50                                            1050800701114 
 298788.438       2.33                                            1050800701115 
 299685.000       2.21                                            1050800701116 
 300585.563       2.63                                            1050800701117 
 301490.063       3.34                                            1050800701118 
 302398.813       3.31                                            1050800701119 
 303311.688       3.80                                            1050800701120 
 304228.500       5.04                                            1050800701121 
 305149.313       5.53                                            1050800701122 
 306074.688       5.44                                            1050800701123 
 307004.188       4.74                                            1050800701124 
 307937.938       4.52                                            1050800701125 
 308875.938       4.69                                            1050800701126 
 309818.250       4.59                                            1050800701127 
 310764.875       3.87                                            1050800701128 
 311715.813       3.31                                            1050800701129 
 312670.938       2.94                                            1050800701130 
 313630.625       2.76                                            1050800701131 
 314594.750       2.67                                            1050800701132 
 315563.438       2.79                                            1050800701133 
 316536.438       2.43                                            1050800701134 
 317514.063       2.28                                            1050800701135 
 318496.313       2.13                                            1050800701136 
 319483.000       2.15                                            1050800701137 
 320473.938       1.91                                            1050800701138 
 321469.938       2.04                                            1050800701139 
 322470.438       1.93                                            1050800701140 
 323475.750       1.89                                            1050800701141 
 324485.688       1.73                                            1050800701142 
 325500.438       1.59                                            1050800701143 
 326519.813       1.63                                            1050800701144 
 327544.063       1.69                                            1050800701145 
 328572.813       1.67                                            1050800701146 
 329606.813       1.83                                            1050800701147 
 330645.563       2.18                                            1050800701148 
 331689.250       2.64                                            1050800701149 
 332737.938       3.56                                            1050800701150 
 333791.688       3.35                                            1050800701151 
 334850.500       2.69                                            1050800701152 
 335914.188       2.62                                            1050800701153 
 336982.563       3.05                                            1050800701154 
 338056.563       3.14                                            1050800701155 
 339135.563       2.84                                            1050800701156 
 340219.875       2.51                                            1050800701157 
 341309.250       2.62                                            1050800701158 
 342403.938       2.48                                            1050800701159 
 343503.938       2.16                                            1050800701160 
 344609.188       2.18                                            1050800701161 
 345719.375       2.23                                            1050800701162 
 346835.438       2.07                                            1050800701163 
 347956.813       2.07                                            1050800701164 
 349083.750       1.98                                            1050800701165 
 350216.000       2.57                                            1050800701166 
 351353.875       2.93                                            1050800701167 
 352497.313       3.87                                            1050800701168 
 353646.313       4.17                                            1050800701169 
 354800.563       3.76                                            1050800701170 
 355960.750       3.55                                            1050800701171 
 357126.750       3.91                                            1050800701172 
 358298.500       4.06                                            1050800701173 
 359476.063       3.78                                            1050800701174 
 360659.313       3.35                                            1050800701175 
 361848.438       2.87                                            1050800701176 
 363043.625       2.90                                            1050800701177 
 364244.188       2.59                                            1050800701178 
 365451.063       3.03                                            1050800701179 
 366664.063       2.93                                            1050800701180 
 367883.063       3.19                                            1050800701181 
 369108.188       2.84                                            1050800701182 
 370339.375       2.49                                            1050800701183 
 371576.750       2.27                                            1050800701184 
 372820.500       2.45                                            1050800701185 
 374069.938       2.41                                            1050800701186 
 375326.125       2.11                                            1050800701187 
 376588.563       1.98                                            1050800701188 
 377857.438       1.93                                            1050800701189 
 379132.813       1.86                                            1050800701190 
 380414.500       1.88                                            1050800701191 
 381702.875       1.89                                            1050800701192 
 382997.688       2.04                                            1050800701193 
 384298.750       2.17                                            1050800701194 
 385606.813       2.50                                            1050800701195 
 386921.625       2.45                                            1050800701196 
 388243.000       2.34                                            1050800701197 
 389571.313       2.10                                            1050800701198 
 390906.500       1.94                                            1050800701199 
 392248.438       1.63                                            1050800701200 
 393597.375       1.80                                            1050800701201 
 394952.813       1.74                                            1050800701202 
 396315.688       1.82                                            1050800701203 
 397685.750       1.51                                            1050800701204 
 399062.688       1.49                                            1050800701205 
ENDDATA           1199          0                                 1050800701206 
ENDSUBENT         1205          0                                 1050800799999 
ENDENTRY             7          0                                 1050899999999 
