ENTRY            10515   20040427                             00001051500000001 
SUBENT        10515001   20040427                             00001051500100001 
BIB                 11         15                                 1051500100002 
INSTITUTE  (1USACOL)                                              1051500100003 
REFERENCE  (J,PR/C,11,1117,197504)                                1051500100004 
AUTHOR     (U.N.Singh,J.Rainwater,H.J.Liou,G.Hacken,J.B.Garg)     1051500100005 
TITLE      Neutron resonance spectroscopy: Aluminum               1051500100006 
FACILITY   (SYNCH,1USACOL) Nevis synchrocyclotron                 1051500100007 
INC-SOURCE (EVAP) Evaporation neutrons from protons on lead.      1051500100008 
METHOD     (TOF) Time-of-flight                                   1051500100009 
DETECTOR   (SCIN) Scintillation detectors for self-indication     1051500100010 
                  measurements                                    1051500100011 
           (NAICR) Sodium iodide crystals viewing a boron slab.   1051500100012 
CORRECTION Data given have been corrected for background.         1051500100013 
STATUS     (APRVD) Approved by author.                            1051500100014 
HISTORY    (19750522C)                                            1051500100015 
           (19830901A) Converted to REACTION formalism            1051500100016 
           (20040427A) Updated to new date formats, lower case.   1051500100017 
ENDBIB              15          0                                 1051500100018 
NOCOMMON             0          0                                 1051500100019 
ENDSUBENT           18          0                                 1051500199999 
SUBENT        10515002   20040427                             00001051500200001 
BIB                  3          6                                 1051500200002 
REACTION  1(13-AL-27(N,0),,EN)                                    1051500200003 
          2(13-AL-27(N,EL),,WID)                                  1051500200004 
          3(13-AL-27(N,0),,L)                                     1051500200005 
          4(13-AL-27(N,0),,J)                                     1051500200006 
ANALYSIS   (MLA) R-matrix multi-level shape analysis.             1051500200007 
ERR-ANALYS (DATA-ERR) No information on source on uncertainties.  1051500200008 
ENDBIB               6          0                                 1051500200009 
NOCOMMON             0          0                                 1051500200010 
DATA                 5          7                                 1051500200011 
DATA      1DATA      2DATA-ERR  2DATA      3DATA      4           1051500200012 
KEV        KEV        KEV        NO-DIM     NO-DIM                1051500200013 
  5.895     0.017     0.002      1.         1.                    1051500200014 
 34.59      3.00      0.15       0.         2.                    1051500200015 
 85.69     11.0       0.6        0.         3.                    1051500200016 
119.6       3.60      0.30       1.         2.                    1051500200017 
142.0      19.0       2.0        0.         3.                    1051500200018 
158.2       3.2       0.3        1.         3.                    1051500200019 
202.0      14.5       1.5        0.         2.                    1051500200020 
ENDDATA              9          0                                 1051500200021 
ENDSUBENT           20          0                                 1051500299999 
SUBENT        10515003   20040427                             00001051500300001 
BIB                  2          2                                 1051500300002 
REACTION   (13-AL-27(N,EL),,STF)                                  1051500300003 
ERR-ANALYS (DATA-ERR) No information on source on uncertainties.  1051500300004 
ENDBIB               2          0                                 1051500300005 
COMMON               2          3                                 1051500300006 
EN-MIN     EN-MAX                                                 1051500300007 
KEV        KEV                                                    1051500300008 
 5.895      202.0                                                 1051500300009 
ENDCOMMON            3          0                                 1051500300010 
DATA                 4          2                                 1051500300011 
DATA       +DATA-ERR  -DATA-ERR  MOMENTUM L                       1051500300012 
NO-DIM     NO-DIM     NO-DIM     NO-DIM                           1051500300013 
   3.25E-04    4.5E-04    1.7E-04 0.                              1051500300014 
   1.8 E-04    3.5E-04    1.1E-04 1.                              1051500300015 
ENDDATA              4          0                                 1051500300016 
ENDSUBENT           15          0                                 1051500399999 
SUBENT        10515004   20040427                             00001051500400001 
BIB                  2          2                                 1051500400002 
REACTION   (13-AL-27(N,TOT),,SIG)                                 1051500400003 
ERR-ANALYS No information on uncertainties.                       1051500400004 
ENDBIB               2          0                                 1051500400005 
NOCOMMON             0          0                                 1051500400006 
DATA                 2        432                                 1051500400007 
EN         DATA                                                   1051500400008 
EV         B                                                      1051500400009 
4059.0     1.12                                                   1051500400010 
4151.176   1.13                                                   1051500400011 
4246.535   1.10                                                   1051500400012 
4345.211   1.08                                                   1051500400013 
4447.375   1.13                                                   1051500400014 
4553.176   1.09                                                   1051500400015 
4662.801   1.13                                                   1051500400016 
4776.438   1.15                                                   1051500400017 
4894.273   1.14                                                   1051500400018 
5016.531   1.14                                                   1051500400019 
5143.422   1.13                                                   1051500400020 
5275.191   1.15                                                   1051500400021 
5412.090   1.18                                                   1051500400022 
5554.387   1.18                                                   1051500400023 
5632.277   1.20                                                   1051500400024 
5704.      1.36                                                   1051500400025 
5724.      1.44                                                   1051500400026 
5742.7     1.52                                                   1051500400027 
5761.8     1.51                                                   1051500400028 
5781.      1.74                                                   1051500400029 
5800.      2.3                                                    1051500400030 
5820.      2.8                                                    1051500400031 
5834.      3.6                                                    1051500400032 
5844.      4.                                                     1051500400033 
5854.      5.9                                                    1051500400034 
5864.      7.9                                                    1051500400035 
5874.      15.                                                    1051500400036 
5881.      33.                                                    1051500400037 
5886.      43.                                                    1051500400038 
5891.      80.                                                    1051500400039 
5896.      86.                                                    1051500400040 
5901.      78.                                                    1051500400041 
5906.      63.                                                    1051500400042 
5911.      45.                                                    1051500400043 
5916.      21.                                                    1051500400044 
5923.      12.                                                    1051500400045 
5933.      7.4                                                    1051500400046 
5943.      5.                                                     1051500400047 
5959.      3.4                                                    1051500400048 
5978.      2.3                                                    1051500400049 
5999.      1.9                                                    1051500400050 
6019.      1.75                                                   1051500400051 
6040.      1.69                                                   1051500400052 
6070.      1.38                                                   1051500400053 
6109.      1.32                                                   1051500400054 
6130.703   1.14                                                   1051500400055 
6151.789   1.36                                                   1051500400056 
6172.984   1.26                                                   1051500400057 
6194.289   1.18                                                   1051500400058 
6215.703   1.28                                                   1051500400059 
6237.227   1.29                                                   1051500400060 
6258.867   1.19                                                   1051500400061 
6280.617   1.16                                                   1051500400062 
6313.457   1.15                                                   1051500400063 
6402.297   1.20                                                   1051500400064 
6493.027   1.11                                                   1051500400065 
6585.695   1.16                                                   1051500400066 
6680.367   1.17                                                   1051500400067 
6777.094   1.14                                                   1051500400068 
6875.934   1.07                                                   1051500400069 
6976.953   1.11                                                   1051500400070 
7080.219   1.12                                                   1051500400071 
7185.781   1.13                                                   1051500400072 
7293.727   1.19                                                   1051500400073 
7404.141   1.14                                                   1051500400074 
7517.066   1.16                                                   1051500400075 
7632.598   1.13                                                   1051500400076 
7750.809   1.14                                                   1051500400077 
7871.793   1.09                                                   1051500400078 
7995.625   1.17                                                   1051500400079 
8058.645   1.18                                                   1051500400080 
8318.332   1.08                                                   1051500400081 
8612.590   1.08                                                   1051500400082 
8899.723   1.07                                                   1051500400083 
9201.469   1.06                                                   1051500400084 
9518.816   1.02                                                   1051500400085 
9852.863   1.02                                                   1051500400086 
10204.813  1.04                                                   1051500400087 
10575.969  1.02                                                   1051500400088 
10967.738  1.01                                                   1051500400089 
11381.691  0.98                                                   1051500400090 
11819.527  0.98                                                   1051500400091 
12283.117  0.98                                                   1051500400092 
12774.527  0.92                                                   1051500400093 
13296.031  0.93                                                   1051500400094 
13850.148  0.87                                                   1051500400095 
14439.621  0.88                                                   1051500400096 
15067.555  0.88                                                   1051500400097 
15737.363  0.84                                                   1051500400098 
16452.832  0.78                                                   1051500400099 
17218.219  0.76                                                   1051500400100 
18038.313  0.75                                                   1051500400101 
18918.402  0.71                                                   1051500400102 
19864.516  0.67                                                   1051500400103 
20112.113  0.65                                                   1051500400104 
20621.445  0.65                                                   1051500400105 
21150.391  0.67                                                   1051500400106 
21699.918  0.60                                                   1051500400107 
22271.145  0.56                                                   1051500400108 
22865.254  0.50                                                   1051500400109 
23483.430  0.51                                                   1051500400110 
24127.039  0.51                                                   1051500400111 
24797.469  0.51                                                   1051500400112 
25496.223  0.53                                                   1051500400113 
26224.949  0.51                                                   1051500400114 
26985.363  0.58                                                   1051500400115 
27779.540  0.78                                                   1051500400116 
28608.883  0.82                                                   1051500400117 
29476.125  1.11                                                   1051500400118 
30383.430  1.64                                                   1051500400119 
31333.281  2.94                                                   1051500400120 
31455.117  3.11                                                   1051500400121 
31700.992  3.85                                                   1051500400122 
31949.723  4.48                                                   1051500400123 
32201.395  5.20                                                   1051500400124 
32456.066  6.91                                                   1051500400125 
32713.781  8.12                                                   1051500400126 
32974.574  10.25                                                  1051500400127 
33238.448  12.44                                                  1051500400128 
33505.582  17.30                                                  1051500400129 
33775.883  21.50                                                  1051500400130 
34049.508  24.90                                                  1051500400131 
34326.473  31.70                                                  1051500400132 
34606.820  34.70                                                  1051500400133 
34890.598  35.10                                                  1051500400134 
35177.898  31.06                                                  1051500400135 
35468.742  28.43                                                  1051500400136 
35763.234  25.80                                                  1051500400137 
36061.418  21.56                                                  1051500400138 
36363.316  20.30                                                  1051500400139 
36669.027  17.03                                                  1051500400140 
36978.637  14.36                                                  1051500400141 
37292.160  11.96                                                  1051500400142 
37609.672  11.18                                                  1051500400143 
37931.297  10.21                                                  1051500400144 
38257.039  9.75                                                   1051500400145 
38586.996  8.57                                                   1051500400146 
38921.234  7.76                                                   1051500400147 
39259.863  7.29                                                   1051500400148 
39602.879  6.67                                                   1051500400149 
39950.457  6.25                                                   1051500400150 
40480.453  5.47                                                   1051500400151 
41203.680  4.90                                                   1051500400152 
41946.441  4.40                                                   1051500400153 
42709.480  4.06                                                   1051500400154 
43493.543  3.67                                                   1051500400155 
44299.387  3.32                                                   1051500400156 
45127.820  3.08                                                   1051500400157 
45979.727  2.89                                                   1051500400158 
46855.980  2.68                                                   1051500400159 
47457.516  2.52                                                   1051500400160 
48685.320  2.38                                                   1051500400161 
49640.465  2.24                                                   1051500400162 
50623.961  2.08                                                   1051500400163 
51636.992  2.02                                                   1051500400164 
52680.664  1.90                                                   1051500400165 
53756.383  1.86                                                   1051500400166 
54865.359  1.77                                                   1051500400167 
56009.008  1.67                                                   1051500400168 
57188.820  1.55                                                   1051500400169 
58406.293  1.53                                                   1051500400170 
59663.094  1.57                                                   1051500400171 
61375.113  1.66                                                   1051500400172 
62131.512  1.41                                                   1051500400173 
62901.941  1.61                                                   1051500400174 
63686.777  1.60                                                   1051500400175 
64486.398  1.33                                                   1051500400176 
65301.160  1.13                                                   1051500400177 
66131.5    1.45                                                   1051500400178 
66977.750  1.44                                                   1051500400179 
67840.375  1.57                                                   1051500400180 
68719.750  1.88                                                   1051500400181 
69616.375  1.37                                                   1051500400182 
70530.625  1.78                                                   1051500400183 
71463.0    1.77                                                   1051500400184 
72413.938  1.92                                                   1051500400185 
73384.063  2.34                                                   1051500400186 
74373.813  2.33                                                   1051500400187 
75383.750  2.82                                                   1051500400188 
76414.313  3.21                                                   1051500400189 
77466.250  3.71                                                   1051500400190 
78540.0    4.40                                                   1051500400191 
79636.188  5.88                                                   1051500400192 
80755.5    7.50                                                   1051500400193 
81898.688  9.99                                                   1051500400194 
83066.188  12.95                                                  1051500400195 
84258.938  16.33                                                  1051500400196 
85477.563  17.74                                                  1051500400197 
86722.750  20.29                                                  1051500400198 
87995.375  18.48                                                  1051500400199 
89296.125  18.65                                                  1051500400200 
90626.0    17.21                                                  1051500400201 
91985.875  12.70                                                  1051500400202 
93376.563  10.20                                                  1051500400203 
94799.0    8.77                                                   1051500400204 
96254.188  7.18                                                   1051500400205 
97743.188  6.10                                                   1051500400206 
99266.938  5.29                                                   1051500400207 
100826.625 4.69                                                   1051500400208 
102423.313 4.30                                                   1051500400209 
104058.313 3.84                                                   1051500400210 
105732.750 3.20                                                   1051500400211 
106299.875 3.07                                                   1051500400212 
106871.563 3.03                                                   1051500400213 
107447.875 3.07                                                   1051500400214 
108028.938 2.65                                                   1051500400215 
108614.625 2.96                                                   1051500400216 
109205.188 2.70                                                   1051500400217 
109800.5   2.24                                                   1051500400218 
110400.750 2.65                                                   1051500400219 
111005.938 2.38                                                   1051500400220 
111616.063 2.26                                                   1051500400221 
112231.250 2.34                                                   1051500400222 
112851.563 2.71                                                   1051500400223 
113476.938 2.29                                                   1051500400224 
114107.625 2.64                                                   1051500400225 
114743.500 3.04                                                   1051500400226 
115384.750 3.01                                                   1051500400227 
116031.5   3.79                                                   1051500400228 
116683.5   4.24                                                   1051500400229 
117341.125 5.20                                                   1051500400230 
118004.375 6.49                                                   1051500400231 
118673.188 8.41                                                   1051500400232 
119347.750 10.23                                                  1051500400233 
120028.0   10.86                                                  1051500400234 
120714.188 8.24                                                   1051500400235 
121406.250 5.77                                                   1051500400236 
122104.188 3.88                                                   1051500400237 
122808.250 3.08                                                   1051500400238 
123518.438 2.19                                                   1051500400239 
124234.625 1.55                                                   1051500400240 
124957.313 1.54                                                   1051500400241 
125686.125 1.75                                                   1051500400242 
126421.438 1.40                                                   1051500400243 
127163.250 1.21                                                   1051500400244 
127911.5   1.46                                                   1051500400245 
128666.438 1.68                                                   1051500400246 
129428.125 1.14                                                   1051500400247 
130196.5   1.65                                                   1051500400248 
130971.875 1.73                                                   1051500400249 
131754.063 1.92                                                   1051500400250 
132543.313 2.58                                                   1051500400251 
133339.688 2.80                                                   1051500400252 
134143.188 3.41                                                   1051500400253 
134954.125 4.03                                                   1051500400254 
135772.375 4.59                                                   1051500400255 
136598.0   5.26                                                   1051500400256 
138300.    7.11                                                   1051500400257 
139100.    8.48                                                   1051500400258 
140000.    9.35                                                   1051500400259 
140800.    10.06                                                  1051500400260 
141700.    11.6                                                   1051500400261 
142600.    12.02                                                  1051500400262 
143500.    12.35                                                  1051500400263 
144400.    13.03                                                  1051500400264 
145300.    13.68                                                  1051500400265 
146200.    12.02                                                  1051500400266 
147100.    12.09                                                  1051500400267 
148100.    11.98                                                  1051500400268 
149000.    10.92                                                  1051500400269 
150000.    11.34                                                  1051500400270 
150900.    10.16                                                  1051500400271 
151900.    9.93                                                   1051500400272 
152800.    10.70                                                  1051500400273 
153834.5   10.20                                                  1051500400274 
154830.625 11.23                                                  1051500400275 
155836.438 11.85                                                  1051500400276 
156852.125 13.81                                                  1051500400277 
157877.813 17.52                                                  1051500400278 
158913.5   14.34                                                  1051500400279 
159959.438 11.56                                                  1051500400280 
161015.750 10.09                                                  1051500400281 
162082.5   8.78                                                   1051500400282 
163160.0   7.95                                                   1051500400283 
164248.063 6.97                                                   1051500400284 
165347.313 6.83                                                   1051500400285 
166457.625 6.15                                                   1051500400286 
167578.938 6.16                                                   1051500400287 
168711.813 5.85                                                   1051500400288 
169856.    5.64                                                   1051500400289 
171012.0   5.08                                                   1051500400290 
172179.938 4.93                                                   1051500400291 
173359.688 5.02                                                   1051500400292 
174551.813 4.77                                                   1051500400293 
175756.188 4.83                                                   1051500400294 
176973.0   4.59                                                   1051500400295 
178202.625 4.23                                                   1051500400296 
179444.938 4.27                                                   1051500400297 
180700.375 4.18                                                   1051500400298 
181969.063 4.14                                                   1051500400299 
183251.188 3.85                                                   1051500400300 
184546.750 3.71                                                   1051500400301 
185856.375 3.70                                                   1051500400302 
187179.688 3.61                                                   1051500400303 
188517.375 3.65                                                   1051500400304 
189869.313 3.59                                                   1051500400305 
191236.0   3.65                                                   1051500400306 
192617.438 3.66                                                   1051500400307 
194013.750 3.99                                                   1051500400308 
195425.625 4.11                                                   1051500400309 
196852.750 4.76                                                   1051500400310 
198295.563 5.08                                                   1051500400311 
199754.375 5.93                                                   1051500400312 
201229.188 7.12                                                   1051500400313 
202720.563 7.94                                                   1051500400314 
204228.563 8.30                                                   1051500400315 
205753.313 8.65                                                   1051500400316 
207295.438 8.07                                                   1051500400317 
208854.813 7.40                                                   1051500400318 
210431.813 7.11                                                   1051500400319 
212026.875 6.41                                                   1051500400320 
213640.125 6.52                                                   1051500400321 
215271.688 5.67                                                   1051500400322 
216922.125 5.06                                                   1051500400323 
218591.563 4.63                                                   1051500400324 
220280.289 5.03                                                   1051500400325 
220847.800 4.76                                                   1051500400326 
221417.307 4.53                                                   1051500400327 
221989.050 5.35                                                   1051500400328 
222562.924 5.47                                                   1051500400329 
223138.794 5.38                                                   1051500400330 
223717.302 5.33                                                   1051500400331 
224297.851 4.76                                                   1051500400332 
225466.042 3.76                                                   1051500400333 
227235.421 4.00                                                   1051500400334 
229025.423 3.91                                                   1051500400335 
230836.912 3.71                                                   1051500400336 
232669.860 3.79                                                   1051500400337 
234524.786 3.42                                                   1051500400338 
236402.109 3.38                                                   1051500400339 
238301.724 2.97                                                   1051500400340 
240224.733 3.16                                                   1051500400341 
242170.929 3.04                                                   1051500400342 
244140.803 2.79                                                   1051500400343 
246134.862 2.78                                                   1051500400344 
248153.299 2.56                                                   1051500400345 
250196.918 2.32                                                   1051500400346 
252265.930 2.15                                                   1051500400347 
254360.556 2.29                                                   1051500400348 
255064.487 2.75                                                   1051500400349 
255771.428 3.08                                                   1051500400350 
256481.349 4.25                                                   1051500400351 
257194.295 2.84                                                   1051500400352 
258628.994 2.00                                                   1051500400353 
260803.297 2.00                                                   1051500400354 
263005.480 1.70                                                   1051500400355 
265235.483 1.66                                                   1051500400356 
267494.097 2.13                                                   1051500400357 
269781.857 1.99                                                   1051500400358 
272098.734 2.36                                                   1051500400359 
274445.727 3.23                                                   1051500400360 
276823.475 4.84                                                   1051500400361 
279231.861 6.52                                                   1051500400362 
281672.105 6.89                                                   1051500400363 
284144.103 6.50                                                   1051500400364 
286649.227 6.31                                                   1051500400365 
289187.490 5.88                                                   1051500400366 
291759.490 5.79                                                   1051500400367 
294365.972 5.02                                                   1051500400368 
297007.739 5.21                                                   1051500400369 
299684.986 4.60                                                   1051500400370 
302398.726 4.64                                                   1051500400371 
305149.227 4.94                                                   1051500400372 
307937.860 4.90                                                   1051500400373 
308875.858 4.91                                                   1051500400374 
309818.223 5.03                                                   1051500400375 
310764.849 5.36                                                   1051500400376 
311715.736 5.66                                                   1051500400377 
312670.856 6.09                                                   1051500400378 
313630.610 5.89                                                   1051500400379 
314594.730 5.38                                                   1051500400380 
315563.365 5.06                                                   1051500400381 
316536.366 4.32                                                   1051500400382 
319482.982 4.10                                                   1051500400383 
322470.352 3.90                                                   1051500400384 
325500.354 3.41                                                   1051500400385 
328572.720 3.17                                                   1051500400386 
331689.223 3.28                                                   1051500400387 
334850.490 3.09                                                   1051500400388 
338056.474 2.88                                                   1051500400389 
341309.234 2.78                                                   1051500400390 
344609.096 2.87                                                   1051500400391 
347956.717 3.04                                                   1051500400392 
351353.853 2.92                                                   1051500400393 
354800.477 2.90                                                   1051500400394 
358298.480 3.48                                                   1051500400395 
359475.970 3.74                                                   1051500400396 
360659.226 4.37                                                   1051500400397 
361848.354 5.08                                                   1051500400398 
363043.606 5.48                                                   1051500400399 
364244.103 7.57                                                   1051500400400 
365450.978 7.32                                                   1051500400401 
366663.977 7.45                                                   1051500400402 
367882.981 6.56                                                   1051500400403 
369108.110 5.59                                                   1051500400404 
370339.363 5.25                                                   1051500400405 
371576.726 4.80                                                   1051500400406 
372820.481 4.57                                                   1051500400407 
374069.854 4.55                                                   1051500400408 
375326.111 4.04                                                   1051500400409 
376588.478 2.95                                                   1051500400410 
377857.357 2.21                                                   1051500400411 
379132.717 1.99                                                   1051500400412 
380414.485 1.82                                                   1051500400413 
381702.855 1.62                                                   1051500400414 
382997.602 2.44                                                   1051500400415 
384298.741 2.63                                                   1051500400416 
385606.735 4.22                                                   1051500400417 
386921.614 4.00                                                   1051500400418 
388242.974 3.61                                                   1051500400419 
389571.234 3.46                                                   1051500400420 
390906.482 3.36                                                   1051500400421 
392248.347 3.31                                                   1051500400422 
393597.364 3.44                                                   1051500400423 
394952.729 3.23                                                   1051500400424 
396315.604 3.04                                                   1051500400425 
397685.736 2.96                                                   1051500400426 
399062.603 3.36                                                   1051500400427 
400446.981 3.16                                                   1051500400428 
401838.481 3.43                                                   1051500400429 
403237.104 3.50                                                   1051500400430 
404643.222 3.95                                                   1051500400431 
406056.106 4.46                                                   1051500400432 
407477.095 4.58                                                   1051500400433 
408905.223 4.68                                                   1051500400434 
410341.098 4.97                                                   1051500400435 
411784.589 5.69                                                   1051500400436 
413235.604 6.25                                                   1051500400437 
414694.219 5.64                                                   1051500400438 
416160.717 5.68                                                   1051500400439 
417634.472 5.50                                                   1051500400440 
419116.467 4.96                                                   1051500400441 
ENDDATA            434          0                                 1051500400442 
ENDSUBENT          441          0                                 1051500499999 
ENDENTRY             4          0                                 1051599999999 
