ENTRY            10511   20040427                             00001051100000001 
SUBENT        10511001   20040427                             00001051100100001 
BIB                 11         14                                 1051100100002 
INSTITUTE  (1USADKE,1USATNL)                                      1051100100003 
REFERENCE  (J,AP,89,284,1975)                                     1051100100004 
AUTHOR     (J.G.Malan,W.F.E.Pineo,M.Divadeenam,B.H.Choi,          1051100100005 
           E.G.Bilpuch,H.W.Newson)                                1051100100006 
TITLE      s- and p-wave neutron spectroscopy. Xc. Intermediate   1051100100007 
            structure: 88Sr                                       1051100100008 
FACILITY   (VDG,1USATNL) Van-de-Graaff.                           1051100100009 
INC-SOURCE (P-LI7) Protons on LiF targets.                        1051100100010 
SAMPLE     Sample thickness 0.084 atoms/b.                        1051100100011 
CORRECTION Not corrected for background (estimated small).        1051100100012 
ERR-ANALYS No information on uncertainties.                       1051100100013 
STATUS     (APRVD) Approved by M.Divadeenam 1978/3/1              1051100100014 
HISTORY    (19780119C)                                            1051100100015 
           (20040427A) Updated to new date formats, lower case.   1051100100016 
ENDBIB              14          0                                 1051100100017 
NOCOMMON             0          0                                 1051100100018 
ENDSUBENT           17          0                                 1051100199999 
SUBENT        10511002   20040427                             00001051100200001 
BIB                  1          1                                 1051100200002 
REACTION   (38-SR-0(N,TOT),,SIG)                                  1051100200003 
ENDBIB               1          0                                 1051100200004 
NOCOMMON             0          0                                 1051100200005 
DATA                 2       1737                                 1051100200006 
EN         DATA                                                   1051100200007 
KEV        B                                                      1051100200008 
  75.0        8.458                                               1051100200009 
  75.9        8.997                                               1051100200010 
  76.8        9.283                                               1051100200011 
  77.8        8.297                                               1051100200012 
  78.7        8.700                                               1051100200013 
  79.6        8.787                                               1051100200014 
  80.5        8.278                                               1051100200015 
  81.4        9.116                                               1051100200016 
  82.3        8.307                                               1051100200017 
  83.2        8.055                                               1051100200018 
  84.1        8.411                                               1051100200019 
  85.0        7.685                                               1051100200020 
  85.9        8.191                                               1051100200021 
  86.7        8.083                                               1051100200022 
  87.6        8.280                                               1051100200023 
  88.5        8.413                                               1051100200024 
  89.3        7.657                                               1051100200025 
  90.2        7.342                                               1051100200026 
  91.0        8.373                                               1051100200027 
  91.9       10.158                                               1051100200028 
  92.7        8.507                                               1051100200029 
  93.5        6.690                                               1051100200030 
  94.4        8.750                                               1051100200031 
  95.2       12.390                                               1051100200032 
  96.0       13.995                                               1051100200033 
  96.8       14.291                                               1051100200034 
  97.7       13.716                                               1051100200035 
  98.5       15.717                                               1051100200036 
  99.3       14.029                                               1051100200037 
 100.1       12.426                                               1051100200038 
 100.9       10.977                                               1051100200039 
 101.7       11.237                                               1051100200040 
 102.5       10.418                                               1051100200041 
 103.3        9.534                                               1051100200042 
 104.1        9.218                                               1051100200043 
 104.8        9.391                                               1051100200044 
 105.6        8.770                                               1051100200045 
 105.6        8.694                                               1051100200046 
 105.9        9.553                                               1051100200047 
 106.3        9.135                                               1051100200048 
 106.4        8.879                                               1051100200049 
 106.6        8.623                                               1051100200050 
 106.9        8.531                                               1051100200051 
 107.2        8.428                                               1051100200052 
 107.2        8.351                                               1051100200053 
 107.5        7.735                                               1051100200054 
 107.8        7.659                                               1051100200055 
 108.0        7.390                                               1051100200056 
 108.1        8.101                                               1051100200057 
 108.4        7.485                                               1051100200058 
 108.7        9.500                                               1051100200059 
 108.7        8.554                                               1051100200060 
 109.0        9.622                                               1051100200061 
 109.4       10.008                                               1051100200062 
 109.5       10.425                                               1051100200063 
 109.7        9.933                                               1051100200064 
 110.0       10.872                                               1051100200065 
 110.3       10.436                                               1051100200066 
 110.3       10.526                                               1051100200067 
 110.6       10.992                                               1051100200068 
 110.9       10.455                                               1051100200069 
 111.0       10.271                                               1051100200070 
 111.2       10.772                                               1051100200071 
 111.5       10.789                                               1051100200072 
 111.8       10.888                                               1051100200073 
 111.8       10.685                                               1051100200074 
 112.6       11.969                                               1051100200075 
 112.6       12.707                                               1051100200076 
 113.3       12.885                                               1051100200077 
 114.1       11.418                                               1051100200078 
 114.8        9.654                                               1051100200079 
 115.6       10.375                                               1051100200080 
 116.3        9.253                                               1051100200081 
 117.1        9.999                                               1051100200082 
 117.8        9.380                                               1051100200083 
 118.6        9.723                                               1051100200084 
 119.3       10.288                                               1051100200085 
 120.1        9.528                                               1051100200086 
 120.8        9.911                                               1051100200087 
 121.5       10.817                                               1051100200088 
 122.3       11.767                                               1051100200089 
 123.0       12.706                                               1051100200090 
 123.7       15.366                                               1051100200091 
 124.5       20.701                                               1051100200092 
 125.2       23.435                                               1051100200093 
 125.9       22.302                                               1051100200094 
 126.6       19.907                                               1051100200095 
 127.4       15.987                                               1051100200096 
 128.1       12.477                                               1051100200097 
 128.8       12.269                                               1051100200098 
 129.5       11.000                                               1051100200099 
 130.2       10.644                                               1051100200100 
 131.0        9.837                                               1051100200101 
 131.7        9.171                                               1051100200102 
 132.4        9.471                                               1051100200103 
 133.1        9.103                                               1051100200104 
 133.8        9.123                                               1051100200105 
 134.5        9.376                                               1051100200106 
 135.2        8.959                                               1051100200107 
 135.9        8.796                                               1051100200108 
 136.6        8.730                                               1051100200109 
 137.3        8.446                                               1051100200110 
 138.0        8.167                                               1051100200111 
 138.7        8.043                                               1051100200112 
 139.4        8.412                                               1051100200113 
 140.1        8.218                                               1051100200114 
 140.8        7.943                                               1051100200115 
 141.5        7.840                                               1051100200116 
 142.2        7.725                                               1051100200117 
 142.9        6.666                                               1051100200118 
 143.6        6.767                                               1051100200119 
 144.3        8.279                                               1051100200120 
 145.0        9.679                                               1051100200121 
 145.7       10.415                                               1051100200122 
 146.4       10.070                                               1051100200123 
 147.0       10.208                                               1051100200124 
 147.7        9.666                                               1051100200125 
 148.4        9.509                                               1051100200126 
 149.1        9.270                                               1051100200127 
 149.8        9.372                                               1051100200128 
 150.5        9.647                                               1051100200129 
 151.1       10.074                                               1051100200130 
 151.8       10.953                                               1051100200131 
 151.8       11.379                                               1051100200132 
 152.5       13.948                                               1051100200133 
 153.2       17.156                                               1051100200134 
 153.8       16.210                                               1051100200135 
 154.5       13.917                                               1051100200136 
 155.2       12.453                                               1051100200137 
 155.9       14.505                                               1051100200138 
 156.5       14.986                                               1051100200139 
 157.2       11.819                                               1051100200140 
 157.9       11.216                                               1051100200141 
 158.5       10.121                                               1051100200142 
 158.9        8.909                                               1051100200143 
 159.2        9.514                                               1051100200144 
 159.6        8.303                                               1051100200145 
 159.9        8.895                                               1051100200146 
 160.2        8.633                                               1051100200147 
 160.5        8.671                                               1051100200148 
 160.9        8.781                                               1051100200149 
 161.2        8.215                                               1051100200150 
 161.6        8.384                                               1051100200151 
 161.9        8.061                                               1051100200152 
 162.3        8.692                                               1051100200153 
 162.5        9.053                                               1051100200154 
 163.0        8.807                                               1051100200155 
 163.2        8.635                                               1051100200156 
 163.6        8.584                                               1051100200157 
 163.9        8.357                                               1051100200158 
 164.3        8.233                                               1051100200159 
 164.5        8.397                                               1051100200160 
 165.0        8.589                                               1051100200161 
 165.2        8.356                                               1051100200162 
 165.6        8.472                                               1051100200163 
 166.3        8.478                                               1051100200164 
 167.0        8.822                                               1051100200165 
 167.7        8.187                                               1051100200166 
 168.3        8.044                                               1051100200167 
 169.0        8.178                                               1051100200168 
 169.7        8.032                                               1051100200169 
 170.3        8.095                                               1051100200170 
 171.0        8.965                                               1051100200171 
 171.7        9.911                                               1051100200172 
 172.3       13.384                                               1051100200173 
 173.0       11.820                                               1051100200174 
 173.7        9.596                                               1051100200175 
 174.3        9.224                                               1051100200176 
 175.0        8.404                                               1051100200177 
 175.7        8.056                                               1051100200178 
 176.3        8.169                                               1051100200179 
 177.0        8.065                                               1051100200180 
 177.6        7.854                                               1051100200181 
 178.3        8.211                                               1051100200182 
 179.0        8.130                                               1051100200183 
 179.6        8.293                                               1051100200184 
 180.3        8.268                                               1051100200185 
 180.9        8.210                                               1051100200186 
 181.6        7.835                                               1051100200187 
 182.2        7.831                                               1051100200188 
 182.9        9.051                                               1051100200189 
 183.6        8.990                                               1051100200190 
 184.2        8.710                                               1051100200191 
 184.9        8.314                                               1051100200192 
 185.5        8.328                                               1051100200193 
 186.2        8.479                                               1051100200194 
 186.8        8.963                                               1051100200195 
 187.5        8.638                                               1051100200196 
 188.1        8.423                                               1051100200197 
 188.8        8.712                                               1051100200198 
 189.4        8.474                                               1051100200199 
 190.1        8.244                                               1051100200200 
 190.7        7.987                                               1051100200201 
 191.4        7.899                                               1051100200202 
 192.0        8.726                                               1051100200203 
 192.6        8.244                                               1051100200204 
 193.3        8.776                                               1051100200205 
 193.9        8.941                                               1051100200206 
 194.6        9.560                                               1051100200207 
 195.2       10.171                                               1051100200208 
 195.9       12.598                                               1051100200209 
 196.5       17.146                                               1051100200210 
 197.2       19.769                                               1051100200211 
 197.8       15.113                                               1051100200212 
 198.4       12.106                                               1051100200213 
 199.1        9.962                                               1051100200214 
 199.7        9.611                                               1051100200215 
 200.4        8.833                                               1051100200216 
 201.0        8.491                                               1051100200217 
 201.6        9.246                                               1051100200218 
 202.3       11.756                                               1051100200219 
 202.9       10.416                                               1051100200220 
 203.1       11.255                                               1051100200221 
 203.5        8.813                                               1051100200222 
 203.8        8.872                                               1051100200223 
 204.2        8.516                                               1051100200224 
 204.4        8.750                                               1051100200225 
 204.8        8.541                                               1051100200226 
 205.0        8.485                                               1051100200227 
 205.5        8.941                                               1051100200228 
 205.6        8.967                                               1051100200229 
 206.1        9.255                                               1051100200230 
 206.3        9.431                                               1051100200231 
 206.7        8.352                                               1051100200232 
 206.9        9.468                                               1051100200233 
 207.4        7.907                                               1051100200234 
 207.5        8.259                                               1051100200235 
 208.1        7.793                                               1051100200236 
 208.8        7.641                                               1051100200237 
 209.4        7.853                                               1051100200238 
 210.0        7.831                                               1051100200239 
 210.6        7.617                                               1051100200240 
 211.3        7.872                                               1051100200241 
 211.9        7.764                                               1051100200242 
 212.5        8.103                                               1051100200243 
 213.1        7.981                                               1051100200244 
 213.7        7.905                                               1051100200245 
 214.4        8.062                                               1051100200246 
 215.0        8.884                                               1051100200247 
 215.6       11.372                                               1051100200248 
 216.2       14.646                                               1051100200249 
 216.8       12.673                                               1051100200250 
 217.5        9.806                                               1051100200251 
 218.1        8.611                                               1051100200252 
 218.7        7.840                                               1051100200253 
 219.3        7.830                                               1051100200254 
 219.9        7.367                                               1051100200255 
 220.5        7.479                                               1051100200256 
 221.2        7.142                                               1051100200257 
 221.8        7.461                                               1051100200258 
 222.4        7.534                                               1051100200259 
 223.0        7.402                                               1051100200260 
 223.6        7.193                                               1051100200261 
 224.2        7.185                                               1051100200262 
 224.8        7.284                                               1051100200263 
 225.5        7.532                                               1051100200264 
 226.1        7.513                                               1051100200265 
 226.7        7.937                                               1051100200266 
 227.3        7.493                                               1051100200267 
 227.9        8.291                                               1051100200268 
 228.5        8.747                                               1051100200269 
 229.1       10.344                                               1051100200270 
 229.7       15.087                                               1051100200271 
 230.4       16.315                                               1051100200272 
 231.0       11.172                                               1051100200273 
 231.6        7.588                                               1051100200274 
 232.2        9.655                                               1051100200275 
 232.8       11.332                                               1051100200276 
 233.4       11.853                                               1051100200277 
 234.0       10.997                                               1051100200278 
 234.6       10.430                                               1051100200279 
 235.2       10.466                                               1051100200280 
 235.8       10.019                                               1051100200281 
 236.4        9.499                                               1051100200282 
 237.0        9.554                                               1051100200283 
 237.6       10.292                                               1051100200284 
 238.3        9.110                                               1051100200285 
 238.9        9.214                                               1051100200286 
 239.5        8.953                                               1051100200287 
 240.1        9.223                                               1051100200288 
 240.7        8.675                                               1051100200289 
 241.3        9.041                                               1051100200290 
 241.9        9.001                                               1051100200291 
 242.5        9.718                                               1051100200292 
 243.1        9.456                                               1051100200293 
 243.7        9.325                                               1051100200294 
 244.3       10.074                                               1051100200295 
 244.9        9.715                                               1051100200296 
 245.5       10.188                                               1051100200297 
 245.5       10.618                                               1051100200298 
 246.1       11.051                                               1051100200299 
 246.7       12.046                                               1051100200300 
 247.3       14.135                                               1051100200301 
 247.9       17.332                                               1051100200302 
 248.5       19.214                                               1051100200303 
 249.1       18.006                                               1051100200304 
 249.7       14.241                                               1051100200305 
 250.3       12.060                                               1051100200306 
 250.9        9.822                                               1051100200307 
 251.5        9.155                                               1051100200308 
 252.1        8.413                                               1051100200309 
 252.7        8.885                                               1051100200310 
 253.3        8.656                                               1051100200311 
 253.9        8.174                                               1051100200312 
 254.5        8.164                                               1051100200313 
 255.1        7.989                                               1051100200314 
 255.7        7.889                                               1051100200315 
 256.3        7.359                                               1051100200316 
 256.9        7.018                                               1051100200317 
 257.5        7.154                                               1051100200318 
 258.1        6.705                                               1051100200319 
 258.7        6.396                                               1051100200320 
 259.3        5.903                                               1051100200321 
 259.9        7.652                                               1051100200322 
 259.9        7.658                                               1051100200323 
 260.5        8.722                                               1051100200324 
 261.1        9.256                                               1051100200325 
 261.6        8.878                                               1051100200326 
 262.2        9.083                                               1051100200327 
 262.6        9.184                                               1051100200328 
 262.8        9.139                                               1051100200329 
 263.2        9.226                                               1051100200330 
 263.4        9.238                                               1051100200331 
 263.8        9.221                                               1051100200332 
 264.0        9.649                                               1051100200333 
 264.5        9.947                                               1051100200334 
 264.6        9.092                                               1051100200335 
 265.1        9.380                                               1051100200336 
 265.2        8.649                                               1051100200337 
 265.7        8.405                                               1051100200338 
 265.8        8.610                                               1051100200339 
 266.3        9.136                                               1051100200340 
 266.4        9.581                                               1051100200341 
 267.0        9.779                                               1051100200342 
 267.0        9.322                                               1051100200343 
 267.6        9.205                                               1051100200344 
 267.6        9.940                                               1051100200345 
 267.6        9.807                                               1051100200346 
 268.2        9.541                                               1051100200347 
 268.2       10.596                                               1051100200348 
 268.8        9.901                                               1051100200349 
 268.8       10.176                                               1051100200350 
 269.4        9.521                                               1051100200351 
 269.4        9.630                                               1051100200352 
 269.9        9.915                                               1051100200353 
 270.1        9.840                                               1051100200354 
 270.5       10.180                                               1051100200355 
 270.7       10.012                                               1051100200356 
 271.1       10.255                                               1051100200357 
 271.3       10.306                                               1051100200358 
 271.7       10.169                                               1051100200359 
 271.9       10.304                                               1051100200360 
 272.3       10.266                                               1051100200361 
 272.5       10.243                                               1051100200362 
 272.9       10.640                                               1051100200363 
 273.1        9.687                                               1051100200364 
 273.5       10.438                                               1051100200365 
 273.8       10.283                                               1051100200366 
 274.1        9.752                                               1051100200367 
 274.4       10.251                                               1051100200368 
 274.7       10.545                                               1051100200369 
 275.0       10.386                                               1051100200370 
 275.3       10.922                                               1051100200371 
 275.6       10.212                                               1051100200372 
 275.8       10.959                                               1051100200373 
 276.2       10.354                                               1051100200374 
 276.8       10.196                                               1051100200375 
 277.5       10.452                                               1051100200376 
 277.5       12.211                                               1051100200377 
 278.1       11.039                                               1051100200378 
 278.1       11.791                                               1051100200379 
 278.7       11.367                                               1051100200380 
 278.7       11.754                                               1051100200381 
 278.7       11.091                                               1051100200382 
 279.2       12.379                                               1051100200383 
 279.3       11.049                                               1051100200384 
 279.3       11.771                                               1051100200385 
 279.7       11.874                                               1051100200386 
 279.9       11.333                                               1051100200387 
 279.9       12.535                                               1051100200388 
 280.3       11.671                                               1051100200389 
 280.5       12.456                                               1051100200390 
 280.5       12.417                                               1051100200391 
 280.5       13.263                                               1051100200392 
 280.9       11.250                                               1051100200393 
 281.2       12.357                                               1051100200394 
 281.2       11.834                                               1051100200395 
 281.2       12.541                                               1051100200396 
 281.4       11.043                                               1051100200397 
 281.8       12.226                                               1051100200398 
 281.8       11.572                                               1051100200399 
 281.8       13.175                                               1051100200400 
 282.0       11.598                                               1051100200401 
 282.4       12.979                                               1051100200402 
 282.4       12.075                                               1051100200403 
 282.4       13.202                                               1051100200404 
 282.6       12.481                                               1051100200405 
 283.0       12.995                                               1051100200406 
 283.0       12.891                                               1051100200407 
 283.0       13.999                                               1051100200408 
 283.1       12.363                                               1051100200409 
 283.6       12.816                                               1051100200410 
 283.6       12.203                                               1051100200411 
 283.6       14.287                                               1051100200412 
 283.7       13.463                                               1051100200413 
 284.2       13.273                                               1051100200414 
 284.2       13.832                                               1051100200415 
 284.2       12.898                                               1051100200416 
 284.2       14.471                                               1051100200417 
 284.8       13.598                                               1051100200418 
 284.8       13.861                                               1051100200419 
 285.4       14.829                                               1051100200420 
 285.5       13.186                                               1051100200421 
 285.9       15.065                                               1051100200422 
 286.1       14.164                                               1051100200423 
 286.5       15.472                                               1051100200424 
 286.7       15.198                                               1051100200425 
 287.0       16.093                                               1051100200426 
 287.3       16.363                                               1051100200427 
 287.6       16.947                                               1051100200428 
 287.9       17.223                                               1051100200429 
 288.2       17.154                                               1051100200430 
 288.5       16.936                                               1051100200431 
 288.7       17.671                                               1051100200432 
 289.1       17.699                                               1051100200433 
 289.3        8.665                                               1051100200434 
 289.3       18.909                                               1051100200435 
 289.7       18.567                                               1051100200436 
 289.8       19.803                                               1051100200437 
 290.4       19.046                                               1051100200438 
 290.4       19.969                                               1051100200439 
 291.0       19.669                                               1051100200440 
 291.0       20.851                                               1051100200441 
 291.5       21.672                                               1051100200442 
 291.6       20.060                                               1051100200443 
 292.1       20.936                                               1051100200444 
 292.2       20.697                                               1051100200445 
 292.6       21.363                                               1051100200446 
 292.8       21.234                                               1051100200447 
 293.2       21.123                                               1051100200448 
 293.4       20.785                                               1051100200449 
 293.8       20.885                                               1051100200450 
 294.0       20.587                                               1051100200451 
 294.3       20.361                                               1051100200452 
 294.6       20.363                                               1051100200453 
 294.9       18.783                                               1051100200454 
 295.2       19.221                                               1051100200455 
 295.4       18.487                                               1051100200456 
 296.0       17.432                                               1051100200457 
 296.5       15.497                                               1051100200458 
 297.1       14.671                                               1051100200459 
 297.7       14.255                                               1051100200460 
 298.2       12.229                                               1051100200461 
 298.8       11.705                                               1051100200462 
 299.3       11.175                                               1051100200463 
 299.9       10.396                                               1051100200464 
 300.4        9.373                                               1051100200465 
 301.0        9.128                                               1051100200466 
 301.5        7.889                                               1051100200467 
 302.1        8.132                                               1051100200468 
 302.7        6.741                                               1051100200469 
 303.1        7.716                                               1051100200470 
 303.2        7.610                                               1051100200471 
 303.7       12.806                                               1051100200472 
 303.8       11.141                                               1051100200473 
 304.3       14.929                                               1051100200474 
 304.3       15.394                                               1051100200475 
 304.9       15.529                                               1051100200476 
 304.9       15.349                                               1051100200477 
 305.4       14.251                                               1051100200478 
 305.5       13.570                                               1051100200479 
 306.0       12.195                                               1051100200480 
 306.1       11.920                                               1051100200481 
 306.5       10.609                                               1051100200482 
 306.5       10.811                                               1051100200483 
 306.6       10.675                                               1051100200484 
 307.1        9.859                                               1051100200485 
 307.2       10.359                                               1051100200486 
 307.6        9.417                                               1051100200487 
 307.8        8.792                                               1051100200488 
 308.4        9.344                                               1051100200489 
 309.0        9.295                                               1051100200490 
 309.5        9.148                                               1051100200491 
 310.1        8.094                                               1051100200492 
 310.7        8.084                                               1051100200493 
 311.3        7.468                                               1051100200494 
 311.9        7.733                                               1051100200495 
 312.4        7.529                                               1051100200496 
 313.0        7.251                                               1051100200497 
 313.6        7.971                                               1051100200498 
 314.2        7.813                                               1051100200499 
 314.8        7.931                                               1051100200500 
 315.3        8.400                                               1051100200501 
 315.9        8.277                                               1051100200502 
 316.5        8.183                                               1051100200503 
 317.1        8.259                                               1051100200504 
 317.6        8.960                                               1051100200505 
 318.2        9.169                                               1051100200506 
 318.8        9.162                                               1051100200507 
 318.8        8.861                                               1051100200508 
 319.4        9.559                                               1051100200509 
 319.4        9.979                                               1051100200510 
 320.0       10.640                                               1051100200511 
 320.0        9.981                                               1051100200512 
 320.5       10.126                                               1051100200513 
 320.5       10.563                                               1051100200514 
 321.1       11.615                                               1051100200515 
 321.7       12.502                                               1051100200516 
 322.3       13.552                                               1051100200517 
 322.8       14.080                                               1051100200518 
 323.4       15.520                                               1051100200519 
 324.0       17.177                                               1051100200520 
 324.6       17.659                                               1051100200521 
 325.1       18.000                                               1051100200522 
 325.7       18.784                                               1051100200523 
 326.3       19.626                                               1051100200524 
 326.9       19.061                                               1051100200525 
 327.5       19.979                                               1051100200526 
 328.0       20.034                                               1051100200527 
 328.6       20.246                                               1051100200528 
 329.2       19.273                                               1051100200529 
 329.8       19.428                                               1051100200530 
 330.3       19.430                                               1051100200531 
 330.9       18.853                                               1051100200532 
 331.5       17.842                                               1051100200533 
 332.0       17.366                                               1051100200534 
 332.6       16.551                                               1051100200535 
 333.2       14.881                                               1051100200536 
 333.8       14.409                                               1051100200537 
 334.3       14.353                                               1051100200538 
 334.9       13.305                                               1051100200539 
 335.5       13.270                                               1051100200540 
 335.6       11.984                                               1051100200541 
 336.1       12.409                                               1051100200542 
 336.1       11.420                                               1051100200543 
 336.6       11.309                                               1051100200544 
 336.7       11.140                                               1051100200545 
 337.2       10.957                                               1051100200546 
 337.2       11.211                                               1051100200547 
 337.8       11.016                                               1051100200548 
 337.8       11.006                                               1051100200549 
 338.4       10.946                                               1051100200550 
 338.4        9.927                                               1051100200551 
 338.9        9.854                                               1051100200552 
 338.9        9.668                                               1051100200553 
 339.5        9.696                                               1051100200554 
 339.5        9.454                                               1051100200555 
 340.1        8.799                                               1051100200556 
 340.1        9.077                                               1051100200557 
 340.6        8.288                                               1051100200558 
 340.6        8.431                                               1051100200559 
 341.2        7.689                                               1051100200560 
 341.2        8.380                                               1051100200561 
 341.8        8.371                                               1051100200562 
 341.8        8.165                                               1051100200563 
 342.3       14.072                                               1051100200564 
 342.3        7.658                                               1051100200565 
 342.9       14.966                                               1051100200566 
 342.9        7.652                                               1051100200567 
 343.4        8.106                                               1051100200568 
 344.0        9.079                                               1051100200569 
 344.6       10.914                                               1051100200570 
 345.1       13.911                                               1051100200571 
 345.7       15.474                                               1051100200572 
 346.3       15.064                                               1051100200573 
 346.8       14.191                                               1051100200574 
 346.8       13.395                                               1051100200575 
 347.4       13.008                                               1051100200576 
 347.4       11.759                                               1051100200577 
 348.0       12.509                                               1051100200578 
 348.0       12.473                                               1051100200579 
 348.5       12.149                                               1051100200580 
 348.5       12.415                                               1051100200581 
 349.1       11.717                                               1051100200582 
 349.1       11.607                                               1051100200583 
 349.6       11.442                                               1051100200584 
 349.6       11.151                                               1051100200585 
 350.2       10.691                                               1051100200586 
 350.2       10.072                                               1051100200587 
 350.8        9.823                                               1051100200588 
 350.8       10.454                                               1051100200589 
 351.3        9.816                                               1051100200590 
 351.3       10.317                                               1051100200591 
 351.9       10.098                                               1051100200592 
 351.9       10.123                                               1051100200593 
 352.4        9.571                                               1051100200594 
 352.4        9.282                                               1051100200595 
 353.0        8.794                                               1051100200596 
 353.0        8.905                                               1051100200597 
 353.6        9.048                                               1051100200598 
 353.6        8.781                                               1051100200599 
 354.1        9.231                                               1051100200600 
 354.1        9.615                                               1051100200601 
 354.7        9.363                                               1051100200602 
 354.7        9.734                                               1051100200603 
 355.2       10.180                                               1051100200604 
 355.2       10.348                                               1051100200605 
 355.8        9.873                                               1051100200606 
 355.8        9.992                                               1051100200607 
 356.4        8.980                                               1051100200608 
 356.4        8.883                                               1051100200609 
 356.9        8.717                                               1051100200610 
 356.9        8.579                                               1051100200611 
 356.9        8.518                                               1051100200612 
 357.5        8.838                                               1051100200613 
 357.5        7.949                                               1051100200614 
 358.0        8.303                                               1051100200615 
 358.0        7.760                                               1051100200616 
 358.0        8.103                                               1051100200617 
 358.6        8.048                                               1051100200618 
 358.6        8.101                                               1051100200619 
 358.6        7.918                                               1051100200620 
 358.6        7.970                                               1051100200621 
 359.2        7.559                                               1051100200622 
 359.2        7.893                                               1051100200623 
 359.2        8.356                                               1051100200624 
 359.2        7.818                                               1051100200625 
 359.7        8.840                                               1051100200626 
 359.7        7.919                                               1051100200627 
 360.3        8.248                                               1051100200628 
 360.3        7.872                                               1051100200629 
 360.4        8.928                                               1051100200630 
 360.8        8.472                                               1051100200631 
 360.8        8.027                                               1051100200632 
 360.9        7.976                                               1051100200633 
 361.4        7.580                                               1051100200634 
 361.5        8.125                                               1051100200635 
 362.0        7.315                                               1051100200636 
 362.0        7.816                                               1051100200637 
 362.5        7.283                                               1051100200638 
 362.6        6.915                                               1051100200639 
 363.1        7.483                                               1051100200640 
 363.2        7.198                                               1051100200641 
 363.6        7.263                                               1051100200642 
 363.7        7.136                                               1051100200643 
 364.3        7.280                                               1051100200644 
 364.9        8.613                                               1051100200645 
 365.4       10.930                                               1051100200646 
 366.0       10.910                                               1051100200647 
 366.6       10.158                                               1051100200648 
 367.1        9.169                                               1051100200649 
 367.7        8.623                                               1051100200650 
 368.3        8.486                                               1051100200651 
 368.8        8.997                                               1051100200652 
 369.4        9.025                                               1051100200653 
 369.9        8.136                                               1051100200654 
 370.5        7.763                                               1051100200655 
 371.1        7.580                                               1051100200656 
 371.6        7.221                                               1051100200657 
 372.2        7.766                                               1051100200658 
 372.8        7.645                                               1051100200659 
 373.3        7.368                                               1051100200660 
 373.9        7.603                                               1051100200661 
 374.4        7.821                                               1051100200662 
 375.0        7.313                                               1051100200663 
 375.6        7.381                                               1051100200664 
 376.1        6.985                                               1051100200665 
 376.7        7.309                                               1051100200666 
 377.3        7.029                                               1051100200667 
 377.8        7.202                                               1051100200668 
 378.4        7.987                                               1051100200669 
 378.9        7.761                                               1051100200670 
 379.5        8.069                                               1051100200671 
 380.1        7.956                                               1051100200672 
 380.6        7.913                                               1051100200673 
 381.2        7.609                                               1051100200674 
 381.7        8.104                                               1051100200675 
 382.3        8.590                                               1051100200676 
 382.3        8.826                                               1051100200677 
 382.9        9.878                                               1051100200678 
 382.9        9.828                                               1051100200679 
 383.4        9.326                                               1051100200680 
 383.4        8.930                                               1051100200681 
 384.0        8.902                                               1051100200682 
 384.0        9.055                                               1051100200683 
 384.5        8.521                                               1051100200684 
 384.5        8.445                                               1051100200685 
 385.1        9.397                                               1051100200686 
 385.7       11.473                                               1051100200687 
 386.2       13.898                                               1051100200688 
 386.8       14.754                                               1051100200689 
 387.3       15.211                                               1051100200690 
 387.9       14.065                                               1051100200691 
 388.5       13.073                                               1051100200692 
 389.0       11.123                                               1051100200693 
 389.6        9.764                                               1051100200694 
 390.1        9.191                                               1051100200695 
 390.7        9.074                                               1051100200696 
 391.3        8.678                                               1051100200697 
 391.5        8.866                                               1051100200698 
 391.8        7.954                                               1051100200699 
 392.1        8.393                                               1051100200700 
 392.4        7.403                                               1051100200701 
 392.6        8.087                                               1051100200702 
 392.9        8.032                                               1051100200703 
 393.2        8.000                                               1051100200704 
 393.5        7.939                                               1051100200705 
 393.8        8.503                                               1051100200706 
 394.1        8.090                                               1051100200707 
 394.3        8.016                                               1051100200708 
 394.6        7.900                                               1051100200709 
 394.9        8.050                                               1051100200710 
 395.2        7.745                                               1051100200711 
 395.4        8.085                                               1051100200712 
 395.7        8.313                                               1051100200713 
 396.0        7.969                                               1051100200714 
 396.3        8.385                                               1051100200715 
 396.6        8.089                                               1051100200716 
 396.8        7.610                                               1051100200717 
 397.4        8.322                                               1051100200718 
 397.7        8.759                                               1051100200719 
 398.0        8.463                                               1051100200720 
 398.5        7.831                                               1051100200721 
 398.8        9.039                                               1051100200722 
 399.1        8.294                                               1051100200723 
 399.6        8.810                                               1051100200724 
 399.9        8.591                                               1051100200725 
 400.2        8.926                                               1051100200726 
 400.7       10.380                                               1051100200727 
 401.3       10.147                                               1051100200728 
 401.9       10.576                                               1051100200729 
 402.1       10.341                                               1051100200730 
 402.4       10.465                                               1051100200731 
 402.7       10.836                                               1051100200732 
 403.0       11.004                                               1051100200733 
 403.2       11.881                                               1051100200734 
 403.5       11.342                                               1051100200735 
 403.8       12.263                                               1051100200736 
 404.1       11.902                                               1051100200737 
 404.4       12.243                                               1051100200738 
 404.6       12.143                                               1051100200739 
 404.9       12.732                                               1051100200740 
 405.2       12.389                                               1051100200741 
 405.5       11.720                                               1051100200742 
 405.8       12.236                                               1051100200743 
 406.0       11.978                                               1051100200744 
 406.6       11.605                                               1051100200745 
 407.1       10.669                                               1051100200746 
 407.7       10.618                                               1051100200747 
 408.3        9.721                                               1051100200748 
 408.8        9.238                                               1051100200749 
 409.4        9.171                                               1051100200750 
 409.9        9.837                                               1051100200751 
 410.5        9.693                                               1051100200752 
 411.0        9.252                                               1051100200753 
 411.6        8.818                                               1051100200754 
 412.1        7.308                                               1051100200755 
 412.7        7.214                                               1051100200756 
 413.3        7.523                                               1051100200757 
 413.8        6.913                                               1051100200758 
 414.4        7.334                                               1051100200759 
 414.9        7.260                                               1051100200760 
 415.5        6.808                                               1051100200761 
 416.0        7.444                                               1051100200762 
 416.0        6.438                                               1051100200763 
 416.6        6.373                                               1051100200764 
 416.6        6.901                                               1051100200765 
 417.1        6.615                                               1051100200766 
 417.1        6.359                                               1051100200767 
 417.7        6.961                                               1051100200768 
 418.3        6.040                                               1051100200769 
 418.8        5.772                                               1051100200770 
 419.4        5.764                                               1051100200771 
 419.9        6.636                                               1051100200772 
 420.5        7.229                                               1051100200773 
 421.0        7.864                                               1051100200774 
 421.6        8.269                                               1051100200775 
 422.1        9.412                                               1051100200776 
 422.7       11.613                                               1051100200777 
 423.2       12.765                                               1051100200778 
 423.8       12.505                                               1051100200779 
 424.3       10.781                                               1051100200780 
 424.9        9.948                                               1051100200781 
 425.5        8.858                                               1051100200782 
 426.0        9.121                                               1051100200783 
 426.6        8.602                                               1051100200784 
 427.1        8.608                                               1051100200785 
 427.7        8.674                                               1051100200786 
 428.2        8.436                                               1051100200787 
 428.8        8.276                                               1051100200788 
 429.3        8.328                                               1051100200789 
 429.9        8.531                                               1051100200790 
 430.4        9.265                                               1051100200791 
 431.0       11.022                                               1051100200792 
 431.5       10.521                                               1051100200793 
 432.1        9.374                                               1051100200794 
 432.6        8.347                                               1051100200795 
 433.2        8.166                                               1051100200796 
 433.7        8.674                                               1051100200797 
 434.3        8.390                                               1051100200798 
 434.8        8.232                                               1051100200799 
 435.4        8.535                                               1051100200800 
 436.0        9.076                                               1051100200801 
 436.5       10.247                                               1051100200802 
 437.1       10.974                                               1051100200803 
 437.6       11.300                                               1051100200804 
 438.2       10.823                                               1051100200805 
 438.7       11.335                                               1051100200806 
 439.3       11.258                                               1051100200807 
 439.8       11.386                                               1051100200808 
 440.4       12.425                                               1051100200809 
 440.9       13.121                                               1051100200810 
 441.5       12.715                                               1051100200811 
 442.0       14.091                                               1051100200812 
 442.6       15.813                                               1051100200813 
 443.1       16.976                                               1051100200814 
 443.7       17.440                                               1051100200815 
 444.2       17.227                                               1051100200816 
 444.8       16.589                                               1051100200817 
 445.3       15.578                                               1051100200818 
 445.9       14.634                                               1051100200819 
 446.4       14.408                                               1051100200820 
 447.0       13.302                                               1051100200821 
 447.5       12.989                                               1051100200822 
 448.1       11.642                                               1051100200823 
 448.6       10.868                                               1051100200824 
 449.2        9.986                                               1051100200825 
 449.7        9.651                                               1051100200826 
 450.3        8.822                                               1051100200827 
 450.8        8.216                                               1051100200828 
 451.4        8.171                                               1051100200829 
 451.9        7.708                                               1051100200830 
 452.5        7.727                                               1051100200831 
 453.0        7.825                                               1051100200832 
 453.6        7.528                                               1051100200833 
 454.1        7.747                                               1051100200834 
 454.7        7.120                                               1051100200835 
 455.2        6.692                                               1051100200836 
 455.8        6.996                                               1051100200837 
 456.3        7.000                                               1051100200838 
 456.9        6.974                                               1051100200839 
 457.4        7.279                                               1051100200840 
 458.0        7.021                                               1051100200841 
 458.5        6.750                                               1051100200842 
 459.1        7.167                                               1051100200843 
 459.6        7.285                                               1051100200844 
 460.2        7.413                                               1051100200845 
 460.7        7.075                                               1051100200846 
 461.2        7.232                                               1051100200847 
 461.8        6.589                                               1051100200848 
 462.3        6.905                                               1051100200849 
 462.9        6.793                                               1051100200850 
 463.4        7.166                                               1051100200851 
 464.0        6.741                                               1051100200852 
 464.5        6.996                                               1051100200853 
 465.1        6.670                                               1051100200854 
 465.6        7.020                                               1051100200855 
 466.2        6.791                                               1051100200856 
 466.7        6.811                                               1051100200857 
 467.3        6.887                                               1051100200858 
 467.8        6.562                                               1051100200859 
 467.8        6.782                                               1051100200860 
 467.8        6.648                                               1051100200861 
 468.4        7.080                                               1051100200862 
 468.4        6.473                                               1051100200863 
 468.9        6.917                                               1051100200864 
 469.5        7.131                                               1051100200865 
 470.0        7.767                                               1051100200866 
 470.6        8.384                                               1051100200867 
 471.1        7.761                                               1051100200868 
 471.6        7.796                                               1051100200869 
 472.2        7.175                                               1051100200870 
 472.7        7.651                                               1051100200871 
 473.3        7.783                                               1051100200872 
 473.8        7.350                                               1051100200873 
 474.4        7.911                                               1051100200874 
 474.9        7.866                                               1051100200875 
 474.9        7.819                                               1051100200876 
 475.4        8.770                                               1051100200877 
 475.5        8.273                                               1051100200878 
 476.0        9.887                                               1051100200879 
 476.0        9.789                                               1051100200880 
 476.5        8.630                                               1051100200881 
 476.6        8.999                                               1051100200882 
 477.1        7.896                                               1051100200883 
 477.1        7.576                                               1051100200884 
 477.6        6.736                                               1051100200885 
 478.1        6.096                                               1051100200886 
 478.7        6.649                                               1051100200887 
 479.2        7.370                                               1051100200888 
 479.7        7.331                                               1051100200889 
 480.3        7.707                                               1051100200890 
 480.8        7.745                                               1051100200891 
 481.3        7.773                                               1051100200892 
 481.9        8.353                                               1051100200893 
 482.4        8.080                                               1051100200894 
 483.0        8.532                                               1051100200895 
 483.5        8.234                                               1051100200896 
 484.0        8.163                                               1051100200897 
 484.6        8.353                                               1051100200898 
 485.1        8.713                                               1051100200899 
 485.6        9.106                                               1051100200900 
 486.2        9.745                                               1051100200901 
 486.7       10.395                                               1051100200902 
 487.2       11.355                                               1051100200903 
 487.8       12.435                                               1051100200904 
 488.3       13.873                                               1051100200905 
 488.8       12.906                                               1051100200906 
 489.4       11.001                                               1051100200907 
 489.9        6.4267                                              1051100200908 
 490.4        9.615                                               1051100200909 
 491.0        8.549                                               1051100200910 
 491.5        9.077                                               1051100200911 
 492.0        9.612                                               1051100200912 
 492.6       10.186                                               1051100200913 
 493.1       12.028                                               1051100200914 
 493.7       13.013                                               1051100200915 
 494.2       12.771                                               1051100200916 
 494.7       11.103                                               1051100200917 
 495.3        9.801                                               1051100200918 
 495.8        9.531                                               1051100200919 
 496.3        7.985                                               1051100200920 
 496.9        8.071                                               1051100200921 
 497.4        8.226                                               1051100200922 
 497.9        8.335                                               1051100200923 
 498.5        8.403                                               1051100200924 
 499.0        8.462                                               1051100200925 
 499.5        9.016                                               1051100200926 
 500.1        8.999                                               1051100200927 
 500.6        9.397                                               1051100200928 
 501.1        9.367                                               1051100200929 
 501.7       10.032                                               1051100200930 
 502.2       11.181                                               1051100200931 
 502.7       12.089                                               1051100200932 
 503.3       13.238                                               1051100200933 
 503.8       12.578                                               1051100200934 
 503.8       12.187                                               1051100200935 
 503.8       12.965                                               1051100200936 
 504.3       11.056                                               1051100200937 
 504.9       10.448                                               1051100200938 
 505.4       10.317                                               1051100200939 
 505.9       10.211                                               1051100200940 
 506.5       10.494                                               1051100200941 
 507.0       11.060                                               1051100200942 
 507.5       11.379                                               1051100200943 
 508.1       10.793                                               1051100200944 
 508.6       10.329                                               1051100200945 
 509.1        9.639                                               1051100200946 
 509.7        9.729                                               1051100200947 
 510.2        9.645                                               1051100200948 
 510.7        9.570                                               1051100200949 
 511.3       10.138                                               1051100200950 
 511.8        9.878                                               1051100200951 
 512.3       10.917                                               1051100200952 
 512.9       10.643                                               1051100200953 
 513.4       10.899                                               1051100200954 
 513.9       11.361                                               1051100200955 
 514.5       12.111                                               1051100200956 
 515.0       12.370                                               1051100200957 
 515.5       12.700                                               1051100200958 
 516.0       12.450                                               1051100200959 
 516.6       12.531                                               1051100200960 
 517.1       12.894                                               1051100200961 
 517.6       14.530                                               1051100200962 
 518.2       15.458                                               1051100200963 
 518.7       15.675                                               1051100200964 
 519.2       16.049                                               1051100200965 
 519.8       16.950                                               1051100200966 
 520.3       17.409                                               1051100200967 
 520.8       18.019                                               1051100200968 
 521.4       18.690                                               1051100200969 
 521.9       19.505                                               1051100200970 
 522.4       19.761                                               1051100200971 
 523.0       20.244                                               1051100200972 
 523.5       19.904                                               1051100200973 
 524.0       19.852                                               1051100200974 
 524.6       19.572                                               1051100200975 
 525.1       19.966                                               1051100200976 
 525.6       19.094                                               1051100200977 
 526.1       18.784                                               1051100200978 
 526.7       18.412                                               1051100200979 
 527.2       17.104                                               1051100200980 
 527.7       16.980                                               1051100200981 
 528.3       15.431                                               1051100200982 
 528.8       14.599                                               1051100200983 
 529.3       14.996                                               1051100200984 
 529.9       13.901                                               1051100200985 
 530.4       13.230                                               1051100200986 
 530.9       12.571                                               1051100200987 
 531.5       12.135                                               1051100200988 
 532.0       11.630                                               1051100200989 
 532.5       10.862                                               1051100200990 
 533.0       11.423                                               1051100200991 
 533.6       10.839                                               1051100200992 
 533.6       10.539                                               1051100200993 
 534.1       10.457                                               1051100200994 
 534.6        9.743                                               1051100200995 
 534.6        9.944                                               1051100200996 
 535.2       10.353                                               1051100200997 
 535.7       12.019                                               1051100200998 
 535.7       12.514                                               1051100200999 
 536.2       13.986                                               1051100201000 
 536.8       14.878                                               1051100201001 
 536.8       14.580                                               1051100201002 
 537.3       14.213                                               1051100201003 
 537.8       13.639                                               1051100201004 
 538.3       13.011                                               1051100201005 
 538.9       12.341                                               1051100201006 
 539.4       11.826                                               1051100201007 
 539.9       11.669                                               1051100201008 
 540.5       10.935                                               1051100201009 
 541.0       10.966                                               1051100201010 
 541.5       10.787                                               1051100201011 
 542.0       11.859                                               1051100201012 
 542.6       12.535                                               1051100201013 
 542.6       13.669                                               1051100201014 
 543.1       14.489                                               1051100201015 
 543.6       13.871                                               1051100201016 
 544.2       12.143                                               1051100201017 
 544.7       12.068                                               1051100201018 
 545.2       11.085                                               1051100201019 
 545.7       12.549                                               1051100201020 
 545.8       11.412                                               1051100201021 
 546.3       12.672                                               1051100201022 
 546.3       12.829                                               1051100201023 
 546.8       12.165                                               1051100201024 
 546.8       12.868                                               1051100201025 
 547.3       11.369                                               1051100201026 
 547.3       11.071                                               1051100201027 
 547.9       10.506                                               1051100201028 
 547.9       10.229                                               1051100201029 
 548.4       10.028                                               1051100201030 
 548.4        9.442                                               1051100201031 
 548.9        8.846                                               1051100201032 
 548.9        8.655                                               1051100201033 
 549.5        8.123                                               1051100201034 
 549.5        8.191                                               1051100201035 
 550.0        8.061                                               1051100201036 
 550.0        7.564                                               1051100201037 
 550.5        7.206                                               1051100201038 
 550.5        7.581                                               1051100201039 
 551.0        6.732                                               1051100201040 
 551.1        7.262                                               1051100201041 
 551.6        7.129                                               1051100201042 
 551.6        7.211                                               1051100201043 
 552.1        7.622                                               1051100201044 
 552.1        7.661                                               1051100201045 
 552.6        8.044                                               1051100201046 
 552.7        8.992                                               1051100201047 
 553.2        9.852                                               1051100201048 
 553.2       11.270                                               1051100201049 
 553.7       10.061                                               1051100201050 
 553.8       10.747                                               1051100201051 
 554.2       10.091                                               1051100201052 
 554.3        9.924                                               1051100201053 
 554.7        8.483                                               1051100201054 
 554.8        8.434                                               1051100201055 
 555.3        7.760                                               1051100201056 
 555.4        7.688                                               1051100201057 
 555.8        7.006                                               1051100201058 
 555.9        7.453                                               1051100201059 
 556.3        6.821                                               1051100201060 
 556.4        7.193                                               1051100201061 
 556.9        7.061                                               1051100201062 
 557.0        7.483                                               1051100201063 
 557.5        7.069                                               1051100201064 
 558.0        7.153                                               1051100201065 
 558.6        6.866                                               1051100201066 
 559.1        7.348                                               1051100201067 
 559.6        8.142                                               1051100201068 
 560.2        8.239                                               1051100201069 
 560.7        8.556                                               1051100201070 
 561.2        9.944                                               1051100201071 
 561.8       10.223                                               1051100201072 
 562.3       11.266                                               1051100201073 
 562.8       12.294                                               1051100201074 
 563.4       13.063                                               1051100201075 
 563.9       13.170                                               1051100201076 
 564.4       14.660                                               1051100201077 
 565.0       14.634                                               1051100201078 
 565.5       14.042                                               1051100201079 
 566.1       14.255                                               1051100201080 
 566.6       14.419                                               1051100201081 
 567.1       12.292                                               1051100201082 
 567.7       11.291                                               1051100201083 
 568.2       10.464                                               1051100201084 
 568.7        9.800                                               1051100201085 
 569.3        9.499                                               1051100201086 
 569.8        9.134                                               1051100201087 
 570.3        9.173                                               1051100201088 
 570.9        9.048                                               1051100201089 
 571.4       11.063                                               1051100201090 
 571.9       11.488                                               1051100201091 
 572.5       10.142                                               1051100201092 
 573.0        8.364                                               1051100201093 
 573.5        8.109                                               1051100201094 
 574.1        6.922                                               1051100201095 
 574.6        8.209                                               1051100201096 
 575.1        8.423                                               1051100201097 
 575.7        7.270                                               1051100201098 
 576.2        6.803                                               1051100201099 
 576.7        6.348                                               1051100201100 
 576.7        5.785                                               1051100201101 
 577.3        6.784                                               1051100201102 
 577.3        7.685                                               1051100201103 
 577.8        6.403                                               1051100201104 
 577.8        6.112                                               1051100201105 
 578.3        6.923                                               1051100201106 
 578.9        7.157                                               1051100201107 
 579.4        7.793                                               1051100201108 
 579.9        8.334                                               1051100201109 
 580.5        8.876                                               1051100201110 
 581.0       10.214                                               1051100201111 
 581.5       10.621                                               1051100201112 
 582.1       11.272                                               1051100201113 
 582.6       10.331                                               1051100201114 
 583.1        7.098                                               1051100201115 
 583.7        5.437                                               1051100201116 
 584.2        4.292                                               1051100201117 
 584.7        4.329                                               1051100201118 
 585.3        6.056                                               1051100201119 
 585.8        7.802                                               1051100201120 
 586.3        8.587                                               1051100201121 
 586.9       10.183                                               1051100201122 
 587.4       10.746                                               1051100201123 
 587.9       11.698                                               1051100201124 
 588.4       12.320                                               1051100201125 
 589.0       12.849                                               1051100201126 
 589.5       14.077                                               1051100201127 
 590.0       14.576                                               1051100201128 
 590.6       14.698                                               1051100201129 
 591.1       14.733                                               1051100201130 
 591.6       15.337                                               1051100201131 
 592.2       15.384                                               1051100201132 
 592.7       14.935                                               1051100201133 
 593.2       15.361                                               1051100201134 
 593.8       14.841                                               1051100201135 
 594.3       14.227                                               1051100201136 
 594.8       13.969                                               1051100201137 
 595.4       13.499                                               1051100201138 
 595.9       13.595                                               1051100201139 
 596.4       13.570                                               1051100201140 
 597.0       12.485                                               1051100201141 
 597.5       12.043                                               1051100201142 
 598.0       11.868                                               1051100201143 
 598.6       11.458                                               1051100201144 
 599.1       11.407                                               1051100201145 
 599.6       10.846                                               1051100201146 
 600.2       10.488                                               1051100201147 
 600.7       10.909                                               1051100201148 
 601.2       10.681                                               1051100201149 
 601.7        9.684                                               1051100201150 
 602.3        9.735                                               1051100201151 
 602.8        9.726                                               1051100201152 
 603.3        9.370                                               1051100201153 
 603.9        8.546                                               1051100201154 
 604.4        8.767                                               1051100201155 
 604.9        8.532                                               1051100201156 
 605.5        8.842                                               1051100201157 
 606.0        8.885                                               1051100201158 
 606.5        8.081                                               1051100201159 
 607.1        8.360                                               1051100201160 
 607.6        8.553                                               1051100201161 
 608.1        7.834                                               1051100201162 
 608.6        8.338                                               1051100201163 
 609.2        7.696                                               1051100201164 
 609.7        7.405                                               1051100201165 
 609.7        7.390                                               1051100201166 
 610.2        8.027                                               1051100201167 
 610.3        7.351                                               1051100201168 
 610.8        7.931                                               1051100201169 
 610.8        8.086                                               1051100201170 
 611.3        7.583                                               1051100201171 
 611.3        7.921                                               1051100201172 
 611.8        8.257                                               1051100201173 
 611.9        7.721                                               1051100201174 
 612.4        8.169                                               1051100201175 
 612.4        7.645                                               1051100201176 
 612.9        7.681                                               1051100201177 
 612.9        7.749                                               1051100201178 
 613.4        8.230                                               1051100201179 
 613.4        7.112                                               1051100201180 
 614.0        7.331                                               1051100201181 
 614.0        7.529                                               1051100201182 
 614.5        6.783                                               1051100201183 
 614.5        7.249                                               1051100201184 
 615.0        6.732                                               1051100201185 
 615.0        6.602                                               1051100201186 
 615.5        6.860                                               1051100201187 
 616.1        8.412                                               1051100201188 
 616.6        8.287                                               1051100201189 
 617.1        9.708                                               1051100201190 
 617.6        9.408                                               1051100201191 
 618.2        9.684                                               1051100201192 
 618.7       10.471                                               1051100201193 
 619.2        9.973                                               1051100201194 
 619.8        9.262                                               1051100201195 
 620.8        7.533                                               1051100201196 
 621.3        7.602                                               1051100201197 
 621.9        7.738                                               1051100201198 
 622.4        7.406                                               1051100201199 
 622.9        7.648                                               1051100201200 
 623.4        7.917                                               1051100201201 
 624.0        7.759                                               1051100201202 
 624.5        7.395                                               1051100201203 
 625.0        6.712                                               1051100201204 
 625.5        6.438                                               1051100201205 
 626.1        6.695                                               1051100201206 
 626.6        6.585                                               1051100201207 
 627.1        7.390                                               1051100201208 
 627.6        7.716                                               1051100201209 
 628.2        7.539                                               1051100201210 
 628.7        7.058                                               1051100201211 
 629.2        6.530                                               1051100201212 
 629.7        6.061                                               1051100201213 
 630.3        6.138                                               1051100201214 
 630.8        6.209                                               1051100201215 
 631.3        6.154                                               1051100201216 
 631.8        6.048                                               1051100201217 
 632.4        5.371                                               1051100201218 
 632.9        5.487                                               1051100201219 
 633.4        6.709                                               1051100201220 
 633.9        7.281                                               1051100201221 
 634.5        6.881                                               1051100201222 
 635.0        7.088                                               1051100201223 
 635.5        7.393                                               1051100201224 
 636.0        8.223                                               1051100201225 
 636.6        8.173                                               1051100201226 
 637.1        8.919                                               1051100201227 
 637.6        9.039                                               1051100201228 
 638.1       10.303                                               1051100201229 
 638.7       11.244                                               1051100201230 
 639.2       11.686                                               1051100201231 
 639.7       12.339                                               1051100201232 
 640.2       13.196                                               1051100201233 
 640.8       13.244                                               1051100201234 
 641.3       13.217                                               1051100201235 
 641.8       12.301                                               1051100201236 
 642.3       12.006                                               1051100201237 
 642.9       11.390                                               1051100201238 
 643.4       11.271                                               1051100201239 
 643.9       11.063                                               1051100201240 
 644.4        9.499                                               1051100201241 
 645.0        8.662                                               1051100201242 
 645.5        8.015                                               1051100201243 
 646.0        8.118                                               1051100201244 
 646.5        7.418                                               1051100201245 
 647.1        7.273                                               1051100201246 
 647.6        6.695                                               1051100201247 
 648.1        6.397                                               1051100201248 
 648.6        6.118                                               1051100201249 
 649.2        6.560                                               1051100201250 
 649.7        6.048                                               1051100201251 
 650.2        5.991                                               1051100201252 
 650.7        5.973                                               1051100201253 
 651.3        5.799                                               1051100201254 
 651.8        6.103                                               1051100201255 
 652.3        6.077                                               1051100201256 
 652.8        6.326                                               1051100201257 
 653.3        6.492                                               1051100201258 
 653.9        6.273                                               1051100201259 
 654.4        6.052                                               1051100201260 
 654.9        6.386                                               1051100201261 
 655.4        5.823                                               1051100201262 
 656.0        6.092                                               1051100201263 
 656.5        6.193                                               1051100201264 
 657.0        6.480                                               1051100201265 
 657.5        6.476                                               1051100201266 
 658.1        6.327                                               1051100201267 
 658.6        6.664                                               1051100201268 
 659.1        7.151                                               1051100201269 
 659.6        8.025                                               1051100201270 
 660.2        7.993                                               1051100201271 
 660.7        8.489                                               1051100201272 
 661.2        8.870                                               1051100201273 
 661.7        9.862                                               1051100201274 
 662.3       10.310                                               1051100201275 
 662.8        8.640                                               1051100201276 
 663.3        8.403                                               1051100201277 
 663.8        8.282                                               1051100201278 
 664.3        8.844                                               1051100201279 
 664.9        9.641                                               1051100201280 
 665.4       10.014                                               1051100201281 
 665.9       10.493                                               1051100201282 
 666.4       11.471                                               1051100201283 
 667.0       11.884                                               1051100201284 
 667.5       12.185                                               1051100201285 
 668.0       12.239                                               1051100201286 
 668.5       12.355                                               1051100201287 
 669.1       12.327                                               1051100201288 
 669.6       11.565                                               1051100201289 
 670.1       10.048                                               1051100201290 
 670.6        9.343                                               1051100201291 
 671.1        9.807                                               1051100201292 
 671.7        8.754                                               1051100201293 
 672.2        8.673                                               1051100201294 
 672.7        8.326                                               1051100201295 
 673.2        7.866                                               1051100201296 
 673.8        7.484                                               1051100201297 
 674.3        7.652                                               1051100201298 
 674.8        6.995                                               1051100201299 
 675.3        7.045                                               1051100201300 
 675.8        7.050                                               1051100201301 
 676.4        7.496                                               1051100201302 
 676.9        6.858                                               1051100201303 
 677.4        7.599                                               1051100201304 
 677.9        7.664                                               1051100201305 
 678.5        8.968                                               1051100201306 
 679.0        9.699                                               1051100201307 
 679.5        9.539                                               1051100201308 
 680.0       10.407                                               1051100201309 
 680.5       11.793                                               1051100201310 
 681.1       12.235                                               1051100201311 
 681.6       12.517                                               1051100201312 
 682.1       11.922                                               1051100201313 
 682.6       11.430                                               1051100201314 
 683.2       11.357                                               1051100201315 
 683.7       11.054                                               1051100201316 
 684.2       10.148                                               1051100201317 
 684.2        9.588                                               1051100201318 
 685.2        9.593                                               1051100201319 
 685.8        8.425                                               1051100201320 
 686.3        8.224                                               1051100201321 
 686.8        7.602                                               1051100201322 
 687.3        7.791                                               1051100201323 
 687.9        7.572                                               1051100201324 
 688.4        7.374                                               1051100201325 
 688.9        7.652                                               1051100201326 
 689.4        6.720                                               1051100201327 
 689.9        6.947                                               1051100201328 
 690.5        7.385                                               1051100201329 
 691.0        7.214                                               1051100201330 
 691.5        7.305                                               1051100201331 
 692.0        7.703                                               1051100201332 
 692.5        8.276                                               1051100201333 
 693.1        8.204                                               1051100201334 
 693.6        8.538                                               1051100201335 
 694.1        8.767                                               1051100201336 
 694.6        9.751                                               1051100201337 
 695.2        9.586                                               1051100201338 
 695.7        9.256                                               1051100201339 
 695.7        9.591                                               1051100201340 
 696.2        9.608                                               1051100201341 
 696.7        9.583                                               1051100201342 
 697.2       10.594                                               1051100201343 
 697.8       11.399                                               1051100201344 
 697.8       11.917                                               1051100201345 
 698.3       12.739                                               1051100201346 
 698.3       12.914                                               1051100201347 
 698.8       13.079                                               1051100201348 
 698.8       13.844                                               1051100201349 
 699.3       13.191                                               1051100201350 
 699.3       13.825                                               1051100201351 
 699.8       13.054                                               1051100201352 
 699.8       13.809                                               1051100201353 
 700.4       11.028                                               1051100201354 
 700.4       11.753                                               1051100201355 
 700.9       10.564                                               1051100201356 
 700.9       10.480                                               1051100201357 
 701.4       10.208                                               1051100201358 
 701.4       10.141                                               1051100201359 
 701.9        9.510                                               1051100201360 
 701.9        9.914                                               1051100201361 
 702.5        9.020                                               1051100201362 
 702.5        9.252                                               1051100201363 
 703.0        8.908                                               1051100201364 
 703.0        8.981                                               1051100201365 
 703.5        9.053                                               1051100201366 
 704.0        8.657                                               1051100201367 
 704.5        9.129                                               1051100201368 
 705.1        9.195                                               1051100201369 
 705.6        9.763                                               1051100201370 
 706.1       10.660                                               1051100201371 
 706.6       10.651                                               1051100201372 
 707.1       10.622                                               1051100201373 
 707.7       11.025                                               1051100201374 
 708.2       11.554                                               1051100201375 
 708.7       11.923                                               1051100201376 
 709.2       11.503                                               1051100201377 
 709.7       11.260                                               1051100201378 
 710.3       10.745                                               1051100201379 
 710.8        9.252                                               1051100201380 
 711.3        8.118                                               1051100201381 
 711.8        7.851                                               1051100201382 
 712.3        7.199                                               1051100201383 
 712.9        6.851                                               1051100201384 
 713.4        7.060                                               1051100201385 
 713.9        7.234                                               1051100201386 
 714.4        7.517                                               1051100201387 
 714.4        7.518                                               1051100201388 
 714.9        7.831                                               1051100201389 
 715.5        7.832                                               1051100201390 
 716.0        8.468                                               1051100201391 
 716.5        8.684                                               1051100201392 
 717.0        8.404                                               1051100201393 
 717.5        9.430                                               1051100201394 
 718.1        9.380                                               1051100201395 
 718.6        9.379                                               1051100201396 
 719.1        9.216                                               1051100201397 
 719.6        9.217                                               1051100201398 
 720.1        8.859                                               1051100201399 
 720.7        9.003                                               1051100201400 
 721.2        8.862                                               1051100201401 
 721.7        9.539                                               1051100201402 
 722.2       10.564                                               1051100201403 
 722.7       11.360                                               1051100201404 
 723.3       10.566                                               1051100201405 
 723.8        9.539                                               1051100201406 
 724.3        8.848                                               1051100201407 
 724.8        7.834                                               1051100201408 
 725.3        7.266                                               1051100201409 
 725.9        7.729                                               1051100201410 
 726.4        7.721                                               1051100201411 
 726.4        7.545                                               1051100201412 
 726.9        7.872                                               1051100201413 
 727.4        7.713                                               1051100201414 
 727.9        8.200                                               1051100201415 
 728.5        8.414                                               1051100201416 
 729.0        8.203                                               1051100201417 
 729.5        8.891                                               1051100201418 
 730.0        9.353                                               1051100201419 
 730.5       10.147                                               1051100201420 
 731.1       10.834                                               1051100201421 
 731.6       11.513                                               1051100201422 
 732.1       12.156                                               1051100201423 
 732.6       11.402                                               1051100201424 
 733.1       10.826                                               1051100201425 
 733.7        9.958                                               1051100201426 
 734.2        8.476                                               1051100201427 
 734.7        7.752                                               1051100201428 
 735.2        7.215                                               1051100201429 
 735.7        6.779                                               1051100201430 
 736.3        6.603                                               1051100201431 
 736.8        6.621                                               1051100201432 
 737.3        6.908                                               1051100201433 
 737.3        6.221                                               1051100201434 
 737.8        6.683                                               1051100201435 
 737.8        6.846                                               1051100201436 
 738.3        7.509                                               1051100201437 
 738.3        7.538                                               1051100201438 
 738.9        9.226                                               1051100201439 
 738.9        9.176                                               1051100201440 
 739.4        9.969                                               1051100201441 
 739.9       11.046                                               1051100201442 
 740.4        9.989                                               1051100201443 
 740.9        9.063                                               1051100201444 
 741.4        7.696                                               1051100201445 
 742.0        6.843                                               1051100201446 
 742.5        5.278                                               1051100201447 
 743.0        4.758                                               1051100201448 
 743.0        4.936                                               1051100201449 
 743.5        5.093                                               1051100201450 
 743.5        4.709                                               1051100201451 
 744.0        4.827                                               1051100201452 
 744.0        4.732                                               1051100201453 
 744.6        5.177                                               1051100201454 
 744.6        5.131                                               1051100201455 
 745.1        6.093                                               1051100201456 
 745.6        5.789                                               1051100201457 
 746.1        6.546                                               1051100201458 
 746.6        6.529                                               1051100201459 
 747.2        6.723                                               1051100201460 
 747.7        6.709                                               1051100201461 
 748.2        7.499                                               1051100201462 
 748.7        6.971                                               1051100201463 
 749.2        7.438                                               1051100201464 
 749.7        7.798                                               1051100201465 
 750.3        8.139                                               1051100201466 
 750.8        8.020                                               1051100201467 
 751.3        7.611                                               1051100201468 
 751.8        8.503                                               1051100201469 
 752.3        8.128                                               1051100201470 
 752.9        8.935                                               1051100201471 
 753.4        8.788                                               1051100201472 
 753.9       10.184                                               1051100201473 
 754.4       10.324                                               1051100201474 
 754.9       11.189                                               1051100201475 
 755.4       11.106                                               1051100201476 
 756.0       10.364                                               1051100201477 
 756.5        9.340                                               1051100201478 
 757.0        8.284                                               1051100201479 
 757.5        7.455                                               1051100201480 
 758.0        7.281                                               1051100201481 
 758.6        6.939                                               1051100201482 
 759.6        7.306                                               1051100201483 
 760.1        7.172                                               1051100201484 
 760.6        7.862                                               1051100201485 
 761.1        8.558                                               1051100201486 
 761.7        8.468                                               1051100201487 
 762.2        9.026                                               1051100201488 
 762.7        8.723                                               1051100201489 
 763.2        8.135                                               1051100201490 
 763.7        8.189                                               1051100201491 
 764.3        8.978                                               1051100201492 
 764.8       10.236                                               1051100201493 
 765.3       10.566                                               1051100201494 
 765.8       10.487                                               1051100201495 
 766.3       11.387                                               1051100201496 
 766.8       11.734                                               1051100201497 
 767.4       12.025                                               1051100201498 
 767.9       11.580                                               1051100201499 
 768.4       11.166                                               1051100201500 
 768.9       11.101                                               1051100201501 
 769.4        9.978                                               1051100201502 
 769.9        8.989                                               1051100201503 
 770.5        7.625                                               1051100201504 
 771.0        7.077                                               1051100201505 
 771.0        7.202                                               1051100201506 
 771.5        7.159                                               1051100201507 
 771.5        7.037                                               1051100201508 
 772.0        8.319                                               1051100201509 
 772.1        8.373                                               1051100201510 
 772.5        7.852                                               1051100201511 
 772.6        8.691                                               1051100201512 
 773.1        8.979                                               1051100201513 
 773.1        8.734                                               1051100201514 
 773.6       10.390                                               1051100201515 
 773.6       10.506                                               1051100201516 
 774.1       11.566                                               1051100201517 
 774.1       11.558                                               1051100201518 
 774.6       11.689                                               1051100201519 
 774.7       12.380                                               1051100201520 
 775.1       11.986                                               1051100201521 
 775.2       11.946                                               1051100201522 
 775.6       11.893                                               1051100201523 
 775.7       11.829                                               1051100201524 
 776.2       11.198                                               1051100201525 
 776.2       11.836                                               1051100201526 
 776.7       11.538                                               1051100201527 
 776.8       11.564                                               1051100201528 
 777.2       11.229                                               1051100201529 
 777.3       11.435                                               1051100201530 
 777.7       10.540                                               1051100201531 
 777.8       11.358                                               1051100201532 
 778.2        9.454                                               1051100201533 
 778.3        9.914                                               1051100201534 
 778.7        8.682                                               1051100201535 
 778.9        8.071                                               1051100201536 
 779.3        8.732                                               1051100201537 
 779.4        8.334                                               1051100201538 
 779.9        9.213                                               1051100201539 
 780.4        9.924                                               1051100201540 
 781.0        9.409                                               1051100201541 
 781.5        8.570                                               1051100201542 
 782.0        8.303                                               1051100201543 
 782.5        7.581                                               1051100201544 
 783.1        7.621                                               1051100201545 
 783.6        8.496                                               1051100201546 
 784.1        8.845                                               1051100201547 
 784.6       10.312                                               1051100201548 
 785.2       11.057                                               1051100201549 
 785.7       11.977                                               1051100201550 
 786.2       11.979                                               1051100201551 
 786.7       11.780                                               1051100201552 
 787.3       11.766                                               1051100201553 
 787.8       11.484                                               1051100201554 
 788.3       11.080                                               1051100201555 
 788.8        9.586                                               1051100201556 
 789.4        8.985                                               1051100201557 
 789.9        7.472                                               1051100201558 
 790.4        6.734                                               1051100201559 
 790.9        6.014                                               1051100201560 
 791.5        6.263                                               1051100201561 
 792.0        6.471                                               1051100201562 
 792.5        7.584                                               1051100201563 
 793.0        8.692                                               1051100201564 
 793.5        9.996                                               1051100201565 
 794.1       10.858                                               1051100201566 
 794.6       11.775                                               1051100201567 
 795.1       11.739                                               1051100201568 
 795.6       11.600                                               1051100201569 
 796.2       11.466                                               1051100201570 
 796.7       11.513                                               1051100201571 
 797.2       11.360                                               1051100201572 
 797.7       12.267                                               1051100201573 
 798.3       12.386                                               1051100201574 
 798.8       12.002                                               1051100201575 
 799.3       11.213                                               1051100201576 
 799.8       10.607                                               1051100201577 
 800.4       10.882                                               1051100201578 
 800.9        9.743                                               1051100201579 
 801.4       10.564                                               1051100201580 
 801.9        9.411                                               1051100201581 
 801.9       11.007                                               1051100201582 
 801.9        9.627                                               1051100201583 
 801.9        9.686                                               1051100201584 
 802.4        9.225                                               1051100201585 
 802.5        9.503                                               1051100201586 
 803.0        8.550                                               1051100201587 
 803.0        8.169                                               1051100201588 
 803.5        8.649                                               1051100201589 
 803.5        8.547                                               1051100201590 
 804.0        8.269                                               1051100201591 
 804.0        8.409                                               1051100201592 
 804.5        7.783                                               1051100201593 
 804.5        8.251                                               1051100201594 
 805.0        7.222                                               1051100201595 
 805.1        7.326                                               1051100201596 
 805.6        7.101                                               1051100201597 
 805.6        6.660                                               1051100201598 
 806.1        6.714                                               1051100201599 
 806.1        6.848                                               1051100201600 
 806.6        7.339                                               1051100201601 
 806.6        6.898                                               1051100201602 
 807.1        6.859                                               1051100201603 
 807.6        6.905                                               1051100201604 
 808.2        7.073                                               1051100201605 
 808.7        7.290                                               1051100201606 
 809.2        6.745                                               1051100201607 
 809.7        5.825                                               1051100201608 
 810.2        5.729                                               1051100201609 
 810.8        6.019                                               1051100201610 
 811.3        5.312                                               1051100201611 
 811.8        6.051                                               1051100201612 
 812.3        6.923                                               1051100201613 
 812.8        8.392                                               1051100201614 
 813.4        8.101                                               1051100201615 
 813.9        9.222                                               1051100201616 
 814.4        8.578                                               1051100201617 
 814.9        7.114                                               1051100201618 
 815.4        7.635                                               1051100201619 
 815.9        6.647                                               1051100201620 
 816.5        6.307                                               1051100201621 
 817.0        5.776                                               1051100201622 
 817.5        6.230                                               1051100201623 
 818.0        6.821                                               1051100201624 
 818.5        7.506                                               1051100201625 
 819.1        7.556                                               1051100201626 
 819.6        8.391                                               1051100201627 
 820.1        8.876                                               1051100201628 
 820.6        9.430                                               1051100201629 
 821.1        9.871                                               1051100201630 
 821.7       10.071                                               1051100201631 
 822.2       10.123                                               1051100201632 
 822.7       10.070                                               1051100201633 
 823.2       10.440                                               1051100201634 
 823.7       10.675                                               1051100201635 
 824.3       10.520                                               1051100201636 
 824.8       10.035                                               1051100201637 
 825.3        9.443                                               1051100201638 
 825.8        7.639                                               1051100201639 
 826.3        7.140                                               1051100201640 
 826.9        8.861                                               1051100201641 
 827.4        9.062                                               1051100201642 
 827.4        8.804                                               1051100201643 
 827.9       10.492                                               1051100201644 
 828.4       10.624                                               1051100201645 
 828.9        9.787                                               1051100201646 
 829.5        9.973                                               1051100201647 
 830.0        9.588                                               1051100201648 
 830.5        8.630                                               1051100201649 
 831.0        8.256                                               1051100201650 
 831.5        9.284                                               1051100201651 
 832.0        9.377                                               1051100201652 
 832.6        9.380                                               1051100201653 
 833.1        9.310                                               1051100201654 
 833.6        8.763                                               1051100201655 
 834.1        8.149                                               1051100201656 
 834.6        5.761                                               1051100201657 
 835.2        4.695                                               1051100201658 
 835.2        5.762                                               1051100201659 
 835.2        4.818                                               1051100201660 
 835.7        4.956                                               1051100201661 
 836.2        5.204                                               1051100201662 
 836.7        5.932                                               1051100201663 
 837.2        5.880                                               1051100201664 
 837.8        5.809                                               1051100201665 
 838.3        5.754                                               1051100201666 
 838.8        6.100                                               1051100201667 
 839.3        6.461                                               1051100201668 
 839.8        6.051                                               1051100201669 
 840.4        6.942                                               1051100201670 
 840.9        6.322                                               1051100201671 
 841.4        6.179                                               1051100201672 
 841.9        6.442                                               1051100201673 
 842.4        6.427                                               1051100201674 
 842.9        6.338                                               1051100201675 
 843.5        6.619                                               1051100201676 
 844.0        6.976                                               1051100201677 
 844.5        6.750                                               1051100201678 
 844.5        6.822                                               1051100201679 
 845.0        7.682                                               1051100201680 
 845.5        7.834                                               1051100201681 
 846.1        9.423                                               1051100201682 
 846.6        9.966                                               1051100201683 
 847.1       10.292                                               1051100201684 
 847.6        9.097                                               1051100201685 
 848.1        9.518                                               1051100201686 
 848.1       10.233                                               1051100201687 
 848.6       10.230                                               1051100201688 
 849.2       10.220                                               1051100201689 
 849.7        9.251                                               1051100201690 
 850.2        8.478                                               1051100201691 
 850.7        8.640                                               1051100201692 
 851.2        8.562                                               1051100201693 
 851.8        9.543                                               1051100201694 
 852.3        9.977                                               1051100201695 
 853.3       10.245                                               1051100201696 
 853.8       10.732                                               1051100201697 
 854.4       10.890                                               1051100201698 
 854.9       10.492                                               1051100201699 
 855.4       11.102                                               1051100201700 
 855.9       10.490                                               1051100201701 
 856.4       10.613                                               1051100201702 
 856.9       10.787                                               1051100201703 
 857.5       11.158                                               1051100201704 
 858.0       10.678                                               1051100201705 
 858.5       10.821                                               1051100201706 
 859.0       10.725                                               1051100201707 
 859.5        9.993                                               1051100201708 
 860.0       10.464                                               1051100201709 
 860.6        9.834                                               1051100201710 
 861.1        9.314                                               1051100201711 
 861.6        9.446                                               1051100201712 
 862.1        9.299                                               1051100201713 
 862.6        9.312                                               1051100201714 
 863.2        8.828                                               1051100201715 
 863.7        9.364                                               1051100201716 
 864.2        9.268                                               1051100201717 
 864.7        8.024                                               1051100201718 
 865.2        8.220                                               1051100201719 
 865.7        7.038                                               1051100201720 
 866.3        6.840                                               1051100201721 
 866.8        7.458                                               1051100201722 
 867.3        7.463                                               1051100201723 
 867.8        6.973                                               1051100201724 
 868.3        6.780                                               1051100201725 
 868.9        7.517                                               1051100201726 
 869.4        9.606                                               1051100201727 
 869.9        7.319                                               1051100201728 
 870.4        7.111                                               1051100201729 
 870.9        7.764                                               1051100201730 
 871.4        7.561                                               1051100201731 
 872.0        7.013                                               1051100201732 
 872.5        7.362                                               1051100201733 
 873.0        8.026                                               1051100201734 
 873.5        8.218                                               1051100201735 
 874.0        9.306                                               1051100201736 
 874.5        8.689                                               1051100201737 
 875.1        7.602                                               1051100201738 
 875.6        6.781                                               1051100201739 
 876.1        6.683                                               1051100201740 
 876.6        7.067                                               1051100201741 
 877.1        7.686                                               1051100201742 
 877.7        7.850                                               1051100201743 
 878.2        6.964                                               1051100201744 
 878.7        6.748                                               1051100201745 
ENDDATA           1739          0                                 1051100201746 
ENDSUBENT         1745          0                                 1051100299999 
SUBENT        10511003   20040427                             00001051100300001 
BIB                  3          7                                 1051100300002 
REACTION  1(38-SR-88(N,0),,EN)                                    1051100300003 
          2(38-SR-88(N,0),,L)                                     1051100300004 
          3(38-SR-88(N,0),,J)                                     1051100300005 
          4(38-SR-88(N,EL),,WID)                                  1051100300006 
          5(38-SR-88(N,EL),,WID/RED)                              1051100300007 
ANALYSIS   R-matrix analysis                                      1051100300008 
HISTORY    (19830823U) Data sorted.                               1051100300009 
ENDBIB               7          0                                 1051100300010 
NOCOMMON             0          0                                 1051100300011 
DATA                 5        113                                 1051100300012 
DATA      1DATA      2DATA      3DATA      4DATA      5           1051100300013 
KEV        NO-DIM     NO-DIM     KEV        EV                    1051100300014 
  14.500    0.         0.5         0.19       1.58                1051100300015 
  18.500    1.         0.5         0.037      8.264               1051100300016 
  23.750    1.         0.5         0.095     14.725               1051100300017 
  31.500    1.         0.5         0.220     22.631               1051100300018 
  56.000    1.         0.5         0.150      6.788               1051100300019 
  92.497    1.         0.5         0.350      7.918               1051100300020 
  94.616    0.         0.5         0.58       1.92                1051100300021 
  98.720    1.         0.5         0.406      8.413               1051100300022 
 109.098    0.         0.5         0.16       0.51                1051100300023 
 113.281    1.         0.5         0.277      4.776               1051100300024 
 125.384    1.         0.5         2.311     34.850               1051100300025 
 144.356    0.         0.5         0.29       0.78                1051100300026 
 153.139    1.         0.5         1.015     11.812               1051100300027 
 156.513    1.         1.5         0.300      3.395               1051100300028 
 172.291    1.         0.5         0.450      4.510               1051100300029 
 197.078    1.         1.5         0.880      7.459               1051100300030 
 202.368    1.         0.5         0.464      3.807               1051100300031 
 205.822    1.         0.5         0.172      1.382               1051100300032 
 216.409    1.         1.5         0.497      3.757               1051100300033 
 230.228    1.         1.5         1.377      9.660               1051100300034 
 232.216    0.         0.5         2.15       4.50                1051100300035 
 248.553    1.         1.5         1.334      8.541               1051100300036 
 259.510    0.         0.5         0.38       0.76                1051100300037 
 264.080    1.         0.5         0.243      1.449               1051100300038 
 268.294    1.         1.5         0.200      1.170               1051100300039 
 270.998    1.         1.5         0.200      1.157               1051100300040 
 273.080    1.         0.5         0.478      2.740               1051100300041 
 275.361    1.         0.5         0.465      2.640               1051100300042 
 279.195    1.         0.5         0.692      3.866               1051100300043 
 284.447    1.         0.5         0.200      1.094               1051100300044 
 291.927    1.         1.5         8.871     47.075               1051100300045 
 304.433    1.         1.5         1.040      5.260               1051100300046 
 308.532    1.         0.5         0.280      1.395               1051100300047 
 326.841    1.         1.5        10.051     46.911               1051100300048 
 345.031    1.         1.5         1.123      4.934               1051100300049 
 348.814    2.         1.5         0.273     12.665               1051100300050 
 350.527    1.         1.5         0.170      0.734               1051100300051 
 354.682    1.         1.5         0.250      1.065               1051100300052 
 360.888    1.         0.5         0.121      0.506               1051100300053 
 365.533    1.         1.5         0.539      2.222               1051100300054 
 369.200    1.         1.5         0.150      0.612               1051100300055 
 378.937    1.         1.5         0.111      0.440               1051100300056 
 383.281    1.         0.5         1.214      4.752               1051100300057 
 386.594    1.         1.5         1.765      6.845               1051100300058 
 404.406    1.         0.5         8.019     29.626               1051100300059 
 410.344    1.         1.5         0.181      0.658               1051100300060 
 420.719    1.         0.5         0.173      0.613               1051100300061 
 423.187    1.         1.5         1.277      4.495               1051100300062 
 427.187    1.         0.5         0.907      3.161               1051100300063 
 430.937    2.         1.5         0.825     23.903               1051100300064 
 433.281    1.         1.5         0.337      1.157               1051100300065 
 437.281    1.         0.5         4.014     13.648               1051100300066 
 443.437    1.         1.5         5.368     17.986               1051100300067 
 471.437    1.         0.5         1.603      5.039               1051100300068 
 475.719    1.         0.5         3.036      9.455               1051100300069 
 480.844    1.         0.5         1.754      5.402               1051100300070 
 488.187    1.         1.5         3.632     11.014               1051100300071 
 492.938    1.         1.5         2.123      6.374               1051100300072 
 499.719    1.         0.5         2.552      7.556               1051100300073 
 502.875    1.         1.5         2.324      6.837               1051100300074 
 506.687    1.         1.5         0.649      1.895               1051100300075 
 512.958    1.         0.5        20.148     58.093               1051100300076 
 520.078    1.         0.5        12.482     35.491               1051100300077 
 520.714    1.         1.5        12.436     35.317               1051100300078 
 536.041    1.         1.5         1.443      3.980               1051100300079 
 543.455    2.         1.5         1.118     19.645               1051100300080 
 545.967    1.         1.5         0.678      1.836               1051100300081 
 552.051    0.         0.5         0.72       0.98                1051100300082 
 552.751    1.         1.5         0.722      1.931               1051100300083 
 563.671    1.         1.5         5.643     14.805               1051100300084 
 571.050    1.         1.5         0.506      1.311               1051100300085 
 581.371    1.         1.5         2.115      5.382               1051100300086 
 584.490    0.         0.5         0.85       1.12                1051100300087 
 589.118    1.         1.5        10.117     25.414               1051100300088 
 593.062    2.         1.5         0.485      7.097               1051100300089 
 616.716    1.         1.5         1.158      2.782               1051100300090 
 623.698    1.         0.5         0.483      1.148               1051100300091 
 626.855    1.         1.5         0.311      0.736               1051100300092 
 635.187    1.         0.5         5.710     13.335               1051100300093 
 639.562    1.         1.5         4.483     10.400               1051100300094 
 649.625    0.         0.5         1.03       1.29                1051100300095 
 660.625    1.         0.5         8.043     18.092               1051100300096 
 662.000    2.         1.5         0.451      5.265               1051100300097 
 666.750    1.         1.5         5.393     12.025               1051100300098 
 678.062    1.         0.5         5.228     11.473               1051100300099 
 680.687    1.         1.5         2.844      6.219               1051100300100 
 697.000    1.         0.5        18.545     39.658               1051100300101 
 699.125    2.         2.5         1.173     12.268               1051100300102 
 706.125    2.         1.5         0.778      7.976               1051100300103 
 708.187    1.         1.5         1.945      4.098               1051100300104 
 716.555    1.         0.5         9.465     19.725               1051100300105 
 722.782    2.         2.5         0.618      6.048               1051100300106 
 727.734    2.         1.5         0.286      2.761               1051100300107 
 731.108    1.         1.5         3.073      6.286               1051100300108 
 739.062    1.         1.5         2.733      5.535               1051100300109 
 744.750    0.         0.5         3.73       4.35                1051100300110 
 745.250    1.         0.5         6.364     12.789               1051100300111 
 750.359    2.         1.5         0.434      3.944               1051100300112 
 753.937    1.         1.5         2.592      5.154               1051100300113 
 761.625    2.         1.5         0.819      7.228               1051100300114 
 766.813    1.         1.5         6.411     12.551               1051100300115 
 774.313    1.         1.5         7.196     13.963               1051100300116 
 780.187    1.         1.5         1.147      2.210               1051100300117 
 784.687    1.         1.5         4.662      8.937               1051100300118 
 794.000    1.         1.5         7.115     13.495               1051100300119 
 806.312    0.         0.5         7.81       8.74                1051100300120 
 812.688    1.         1.5         1.326      2.463               1051100300121 
 820.375    1.         1.5         6.102     11.238               1051100300122 
 827.250    1.         1.5         1.870      3.418               1051100300123 
 831.312    1.         1.5         1.009      1.836               1051100300124 
 836.875    0.         0.5        10.28      11.30                1051100300125 
 840.312    1.         0.5         3.233      5.828               1051100300126 
 845.562    1.         1.5         4.875      8.739               1051100300127 
ENDDATA            115          0                                 1051100300128 
ENDSUBENT          127          0                                 1051100399999 
ENDENTRY             3          0                                 1051199999999 
