ENTRY            10539   20040511                             00001053900000001 
SUBENT        10539001   20040511                             00001053900100001 
BIB                 12         17                                 1053900100002 
INSTITUTE  (1USACOL,1USAALB)                                      1053900100003 
REFERENCE  (J,PR/C,13,124,197601)                                 1053900100004 
           (C,75WASH,2,798,197503)                                1053900100005 
AUTHOR     (U.N.Singh,J.Rainwater,H.I.Liou,G.Hacken,J.B.Garg)     1053900100006 
TITLE      Neutron resonance spectroscopy: 209Bi                  1053900100007 
FACILITY   (SYNCH,1USACOL) Nevis synchrocyclotron                 1053900100008 
INC-SOURCE (EVAP)                                                 1053900100009 
SAMPLE     Natural bismuth                                        1053900100010 
METHOD     (TOF) Time-of-flight, 200 meter path.                  1053900100011 
DETECTOR   (SCIN) Scintillators for self-indication measurement   1053900100012 
           (NAICR) Sodium-iodide crystals for viewing boron slab. 1053900100013 
ERR-ANALYS (DATA-ERR) No information on contributions to          1053900100014 
            uncertainty.                                          1053900100015 
STATUS     (APRVD) Approved by author, 1976/3/22.                 1053900100016 
HISTORY    (19750912C)                                            1053900100017 
           (19830901A) Converted to REACTION formalism            1053900100018 
           (20040511A) Updated to new date formats, lower case.   1053900100019 
ENDBIB              17          0                                 1053900100020 
NOCOMMON             0          0                                 1053900100021 
ENDSUBENT           20          0                                 1053900199999 
SUBENT        10539002   20040511                             00001053900200001 
BIB                  4          6                                 1053900200002 
REACTION  1(83-BI-209(N,0),,EN)                                   1053900200003 
          2(83-BI-209(N,EL),,WID,,G)                              1053900200004 
          3(83-BI-209(N,0),,L)                                    1053900200005 
ANALYSIS   (AREA) Area analysis                                   1053900200006 
CORRECTION Data corrected for Doppler broadening.                 1053900200007 
HISTORY    (19830901A) J moved to subentry 5. Data corrected.     1053900200008 
ENDBIB               6          0                                 1053900200009 
NOCOMMON             0          0                                 1053900200010 
DATA                 4         20                                 1053900200011 
DATA      1DATA      2DATA-ERR  2DATA      3                      1053900200012 
KEV        EV         EV         NO-DIM                           1053900200013 
 3.348       0.08      0.03      1.                               1053900200014 
 4.455       0.120     0.040     1.                               1053900200015 
 6.524       0.28      0.08      1.                               1053900200016 
 9.018       0.16      0.05      1.                               1053900200017 
 9.153       0.12      0.04      1.                               1053900200018 
 9.762       0.11      0.04      1.                               1053900200019 
17.45        0.50      0.15      1.                               1053900200020 
21.05        2.5       0.7       1.                               1053900200021 
25.28        9.5       3.0       1.                               1053900200022 
37.25        6.3       2.0       1.                               1053900200023 
39.19        1.7       0.5       1.                               1053900200024 
42.44        7.        2.        1.                               1053900200025 
44.17        1.4       0.4       1.                               1053900200026 
51.80        3.5       1.0       1.                               1053900200027 
52.84       12.        3.        0.                               1053900200028 
53.85       32.        8.        0.                               1053900200029 
57.60        5.8       1.5       1.                               1053900200030 
61.80       40.        8.        0.                               1053900200031 
67.07        6.7       2.0       1.                               1053900200032 
72.60       12.        4.        1.                               1053900200033 
ENDDATA             22          0                                 1053900200034 
ENDSUBENT           33          0                                 1053900299999 
SUBENT        10539003   20040511                             00001053900300001 
BIB                  2          2                                 1053900300002 
REACTION   (83-BI-209(N,EL),,STF)                                 1053900300003 
HISTORY    (19830901A) Data corrected.                            1053900300004 
ENDBIB               2          0                                 1053900300005 
NOCOMMON             0          0                                 1053900300006 
DATA                 6          2                                 1053900300007 
EN-MIN     EN-MAX     DATA       +DATA-ERR  -DATA-ERR  MOMENTUM L 1053900300008 
KEV        KEV        NO-DIM     NO-DIM     NO-DIM     NO-DIM     1053900300009 
0.800      69.50         0.62E-04   0.36E-04   0.20E-04 0.        1053900300010 
3.348      72.60         0.13E-04   0.06E-04   0.04E-04 1.        1053900300011 
ENDDATA              4          0                                 1053900300012 
ENDSUBENT           11          0                                 1053900399999 
SUBENT        10539004   20040511                             00001053900400001 
BIB                  2          2                                 1053900400002 
REACTION   (83-BI-209(N,TOT),,SIG)                                1053900400003 
STATUS     Data received on tape, Singh, 1975/12.                 1053900400004 
ENDBIB               2          0                                 1053900400005 
NOCOMMON             0          0                                 1053900400006 
DATA                 2        634                                 1053900400007 
EN         DATA                                                   1053900400008 
EV         B                                                      1053900400009 
    507.340       8.86                                            1053900400010 
    524.719       8.73                                            1053900400011 
    543.040       8.98                                            1053900400012 
    562.269       8.27                                            1053900400013 
    582.570       8.58                                            1053900400014 
    604.000       8.23                                            1053900400015 
    626.619       7.80                                            1053900400016 
    650.550       7.73                                            1053900400017 
    675.869       7.42                                            1053900400018 
    702.690       6.69                                            1053900400019 
    731.150       5.53                                            1053900400020 
    734.420       5.07                                            1053900400021 
    737.709       5.27                                            1053900400022 
    741.019       5.17                                            1053900400023 
    744.359       5.19                                            1053900400024 
    747.709       5.00                                            1053900400025 
    751.090       5.00                                            1053900400026 
    754.500       4.95                                            1053900400027 
    757.920       4.45                                            1053900400028 
    761.369       4.69                                            1053900400029 
    764.849       5.31                                            1053900400030 
    768.340       5.31                                            1053900400031 
    771.859       6.42                                            1053900400032 
    775.410       8.46                                            1053900400033 
    778.979      11.23                                            1053900400034 
    782.570      18.79                                            1053900400035 
    786.190      30.08                                            1053900400036 
    788.619      50.34                                            1053900400037 
    789.840      57.70                                            1053900400038 
    791.060      68.84                                            1053900400039 
    792.279     103.16                                            1053900400040 
    793.509     160.74                                            1053900400041 
    794.740     189.24                                            1053900400042 
    795.969     264.02                                            1053900400043 
    797.199     370.27                                            1053900400044 
    798.440     465.12                                            1053900400045 
    799.680     513.68                                            1053900400046 
    800.920     511.63                                            1053900400047 
    802.170     481.30                                            1053900400048 
    803.420     380.98                                            1053900400049 
    804.670     361.15                                            1053900400050 
    805.930     247.15                                            1053900400051 
    807.180     207.02                                            1053900400052 
    808.449     174.42                                            1053900400053 
    809.709     139.08                                            1053900400054 
    810.979     121.06                                            1053900400055 
    812.250     108.56                                            1053900400056 
    813.519      98.33                                            1053900400057 
    814.800      88.09                                            1053900400058 
    816.070      77.46                                            1053900400059 
    817.359      77.91                                            1053900400060 
    818.639      62.19                                            1053900400061 
    819.930      57.10                                            1053900400062 
    821.219      56.44                                            1053900400063 
    822.509      50.34                                            1053900400064 
    823.810      46.51                                            1053900400065 
    825.109      46.41                                            1053900400066 
    826.410      43.24                                            1053900400067 
    827.719      41.58                                            1053900400068 
    829.029      42.28                                            1053900400069 
    831.660      37.19                                            1053900400070 
    835.619      30.74                                            1053900400071 
    839.619      29.53                                            1053900400072 
    843.639      28.02                                            1053900400073 
    847.690      25.95                                            1053900400074 
    851.769      23.58                                            1053900400075 
    855.879      22.93                                            1053900400076 
    864.190      20.62                                            1053900400077 
    876.889      18.36                                            1053900400078 
    889.869      17.00                                            1053900400079 
    903.129      16.57                                            1053900400080 
    916.699      15.47                                            1053900400081 
    930.570      14.70                                            1053900400082 
    959.279      13.91                                            1053900400083 
   1004.909      12.63                                            1053900400084 
   1053.859      12.50                                            1053900400085 
   1106.479      11.88                                            1053900400086 
   1163.149      11.77                                            1053900400087 
   1224.279      11.36                                            1053900400088 
   1290.359      10.94                                            1053900400089 
   1361.939      10.66                                            1053900400090 
   1439.639      10.54                                            1053900400091 
   1524.189      10.52                                            1053900400092 
   1616.409      10.10                                            1053900400093 
   1717.259       9.96                                            1053900400094 
   1827.849       9.65                                            1053900400095 
   1954.209       9.06                                            1053900400096 
   2088.899       8.11                                            1053900400097 
   2164.279       7.21                                            1053900400098 
   2180.969       6.72                                            1053900400099 
   2197.849       6.46                                            1053900400100 
   2214.919       6.92                                            1053900400101 
   2232.199       6.92                                            1053900400102 
   2243.819       8.41                                            1053900400103 
   2249.669       9.41                                            1053900400104 
   2255.539      11.08                                            1053900400105 
   2261.439      11.90                                            1053900400106 
   2267.358      13.94                                            1053900400107 
   2273.299      24.79                                            1053900400108 
   2279.258      31.60                                            1053900400109 
   2285.249      38.15                                            1053900400110 
   2291.259      55.23                                            1053900400111 
   2297.299      79.58                                            1053900400112 
   2303.359     146.83                                            1053900400113 
   2309.439     219.79                                            1053900400114 
   2315.549     305.29                                            1053900400115 
   2321.679     251.25                                            1053900400116 
   2327.829     201.55                                            1053900400117 
   2334.009     119.47                                            1053900400118 
   2340.219      89.56                                            1053900400119 
   2346.448      74.28                                            1053900400120 
   2352.699      62.89                                            1053900400121 
   2358.979      55.69                                            1053900400122 
   2365.289      46.01                                            1053900400123 
   2371.619      39.46                                            1053900400124 
   2377.969      36.74                                            1053900400125 
   2384.348      35.12                                            1053900400126 
   2390.759      32.55                                            1053900400127 
   2397.199      31.19                                            1053900400128 
   2403.649      28.22                                            1053900400129 
   2410.139      28.32                                            1053900400130 
   2416.649      27.06                                            1053900400131 
   2423.189      24.74                                            1053900400132 
   2429.749      22.52                                            1053900400133 
   2436.339      22.34                                            1053900400134 
   2462.979      18.87                                            1053900400135 
   2524.519      16.31                                            1053900400136 
   2588.409      14.62                                            1053900400137 
   2654.749      14.02                                            1053900400138 
   2723.669      13.17                                            1053900400139 
   2795.309      12.87                                            1053900400140 
   2947.339      12.24                                            1053900400141 
   3199.739      11.73                                            1053900400142 
   3224.099      11.79                                            1053900400143 
   3278.928      11.08                                            1053900400144 
   3344.999      15.00                                            1053900400145 
   3348.999      23.50                                            1053900400146 
   3351.999      16.20                                            1053900400147 
   3392.862      11.17                                            1053900400148 
   3432.165      11.34                                            1053900400149 
   3485.999      11.31                                            1053900400150 
   3512.848      11.01                                            1053900400151 
   3575.241      10.99                                            1053900400152 
   3639.311      10.84                                            1053900400153 
   3705.113      10.50                                            1053900400154 
   3772.722      10.94                                            1053900400155 
   3842.199      10.55                                            1053900400156 
   3913.612      10.49                                            1053900400157 
   3987.035      10.94                                            1053900400158 
   4062.537      10.70                                            1053900400159 
   4140.203      10.65                                            1053900400160 
   4220.125      10.57                                            1053900400161 
   4302.387      10.75                                            1053900400162 
   4387.078      10.53                                            1053900400163 
   4415.855      10.30                                            1053900400164 
   4450.996      13.10                                            1053900400165 
   4455.996      21.00                                            1053900400166 
   4460.996      12.00                                            1053900400167 
   4474.289      11.15                                            1053900400168 
   4503.934      10.20                                            1053900400169 
   4564.125      10.16                                            1053900400170 
   4656.691       9.92                                            1053900400171 
   4752.113      10.13                                            1053900400172 
   4850.500       9.33                                            1053900400173 
   4951.969       8.91                                            1053900400174 
   4986.500       8.75                                            1053900400175 
   5021.387       9.32                                            1053900400176 
   5056.648       7.72                                            1053900400177 
   5092.289      13.25                                            1053900400178 
   5096.293      12.10                                            1053900400179 
   5102.781      43.80                                            1053900400180 
   5107.766      94.37                                            1053900400181 
   5112.766     118.77                                            1053900400182 
   5117.781      77.91                                            1053900400183 
   5127.809      34.62                                            1053900400184 
   5132.844      30.18                                            1053900400185 
   5142.926      18.09                                            1053900400186 
   5158.094      12.09                                            1053900400187 
   5173.344      12.80                                            1053900400188 
   5188.645      12.34                                            1053900400189 
   5219.473      12.07                                            1053900400190 
   5266.223      11.61                                            1053900400191 
   5313.609      11.14                                            1053900400192 
   5361.629      10.32                                            1053900400193 
   5410.309      10.23                                            1053900400194 
   5459.664       9.98                                            1053900400195 
   5509.688      10.63                                            1053900400196 
   5560.395      10.15                                            1053900400197 
   5611.816      10.09                                            1053900400198 
   5663.945       9.67                                            1053900400199 
   5716.816      10.01                                            1053900400200 
   5770.434       9.67                                            1053900400201 
   5824.805       9.41                                            1053900400202 
   6108.512       9.54                                            1053900400203 
   6288.805       9.75                                            1053900400204 
   6477.188       9.83                                            1053900400205 
   6516.996      16.00                                            1053900400206 
   6522.996      21.20                                            1053900400207 
   6528.996      14.90                                            1053900400208 
   6674.184       9.36                                            1053900400209 
   6880.293       9.38                                            1053900400210 
   7096.102       9.10                                            1053900400211 
   7322.223       9.08                                            1053900400212 
   7559.316       9.13                                            1053900400213 
   7808.137       8.69                                            1053900400214 
   8069.438       8.76                                            1053900400215 
   8344.082       8.81                                            1053900400216 
   8632.996       8.58                                            1053900400217 
   8937.164       8.67                                            1053900400218 
   9010.996      13.50                                            1053900400219 
   9017.996      14.50                                            1053900400220 
   9148.996      11.40                                            1053900400221 
   9152.996      14.50                                            1053900400222 
   9157.996      11.50                                            1053900400223 
   9257.695       8.20                                            1053900400224 
   9595.793       8.36                                            1053900400225 
   9751.996       8.50                                            1053900400226 
   9756.996      11.80                                            1053900400227 
   9761.996      13.40                                            1053900400228 
   9767.996      11.20                                            1053900400229 
   9772.996       9.00                                            1053900400230 
   9952.750       7.71                                            1053900400231 
  10126.223       7.77                                            1053900400232 
  10278.609       7.73                                            1053900400233 
  10330.012       7.36                                            1053900400234 
  10434.434       7.46                                            1053900400235 
  10593.855       7.97                                            1053900400236 
  10729.129       6.87                                            1053900400237 
  10756.934       7.32                                            1053900400238 
  10923.816       6.98                                            1053900400239 
  11008.195       6.40                                            1053900400240 
  11094.637       6.50                                            1053900400241 
  11151.844       5.94                                            1053900400242 
  11269.469       6.24                                            1053900400243 
  11298.305       5.96                                            1053900400244 
  11447.676       5.87                                            1053900400245 
  11600.016       6.07                                            1053900400246 
  11631.773       6.63                                            1053900400247 
  11651.496       6.13                                            1053900400248 
  11703.293       7.52                                            1053900400249 
  11755.438       7.36                                            1053900400250 
  11807.938       9.51                                            1053900400251 
  11819.516      10.84                                            1053900400252 
  11860.793      11.87                                            1053900400253 
  11882.996      14.00                                            1053900400254 
  11914.000      20.36                                            1053900400255 
  11946.996      21.10                                            1053900400256 
  11967.559      25.95                                            1053900400257 
  12011.996      34.80                                            1053900400258 
  12021.496      42.63                                            1053900400259 
  12033.996      41.00                                            1053900400260 
  12054.996      53.10                                            1053900400261 
  12075.781      59.47                                            1053900400262 
  12076.996      64.80                                            1053900400263 
  12098.996      76.20                                            1053900400264 
  12130.445      83.16                                            1053900400265 
  12185.480      97.32                                            1053900400266 
  12186.996     105.00                                            1053900400267 
  12240.887      85.57                                            1053900400268 
  12275.996      78.70                                            1053900400269 
  12296.684      66.32                                            1053900400270 
  12297.996      72.50                                            1053900400271 
  12320.996      66.70                                            1053900400272 
  12341.996      64.00                                            1053900400273 
  12352.852      54.78                                            1053900400274 
  12364.996      53.40                                            1053900400275 
  12409.414      43.09                                            1053900400276 
  12410.996      47.60                                            1053900400277 
  12466.352      42.03                                            1053900400278 
  12478.996      37.40                                            1053900400279 
  12523.688      30.94                                            1053900400280 
  12547.996      33.40                                            1053900400281 
  12581.426      29.48                                            1053900400282 
  12617.844      29.50                                            1053900400283 
  12639.559      27.36                                            1053900400284 
  12698.102      24.64                                            1053900400285 
  12816.395      21.52                                            1053900400286 
  12830.063      21.55                                            1053900400287 
  12876.184      20.46                                            1053900400288 
  12996.980      18.29                                            1053900400289 
  13047.684      18.43                                            1053900400290 
  13119.500      17.38                                            1053900400291 
  13270.883      15.58                                            1053900400292 
  13306.555      16.02                                            1053900400293 
  13497.629      14.16                                            1053900400294 
  13499.863      15.11                                            1053900400295 
  13692.852      13.39                                            1053900400296 
  13734.809      13.60                                            1053900400297 
  13892.344      12.65                                            1053900400298 
  13975.969      12.29                                            1053900400299 
  14096.223      11.80                                            1053900400300 
  14223.512      12.71                                            1053900400301 
  14304.625      11.17                                            1053900400302 
  14477.711      11.57                                            1053900400303 
  14517.684      10.46                                            1053900400304 
  14589.750      10.18                                            1053900400305 
  14662.375       9.38                                            1053900400306 
  14735.531       9.93                                            1053900400307 
  14738.762      10.56                                            1053900400308 
  14809.246       9.25                                            1053900400309 
  14827.375       9.68                                            1053900400310 
  14883.500       9.08                                            1053900400311 
  14916.762       9.53                                            1053900400312 
  14958.316       8.81                                            1053900400313 
  15006.945       9.09                                            1053900400314 
  15033.711       8.04                                            1053900400315 
  15097.988       8.82                                            1053900400316 
  15109.676       8.04                                            1053900400317 
  15186.211       7.30                                            1053900400318 
  15189.836       8.06                                            1053900400319 
  15263.332       6.89                                            1053900400320 
  15282.523       7.05                                            1053900400321 
  15341.043       6.87                                            1053900400322 
  15376.082       8.73                                            1053900400323 
  15419.344       9.93                                            1053900400324 
  15438.996      12.10                                            1053900400325 
  15470.996      20.40                                            1053900400326 
  15471.879      29.03                                            1053900400327 
  15480.996      26.00                                            1053900400328 
  15491.996      29.50                                            1053900400329 
  15498.246      39.11                                            1053900400330 
  15501.996      34.70                                            1053900400331 
  15512.996      42.70                                            1053900400332 
  15522.996      48.20                                            1053900400333 
  15524.684      61.18                                            1053900400334 
  15544.996      62.70                                            1053900400335 
  15551.188      87.24                                            1053900400336 
  15554.996      69.20                                            1053900400337 
  15565.996      73.50                                            1053900400338 
  15577.762      65.21                                            1053900400339 
  15597.996      56.90                                            1053900400340 
  15604.395      56.29                                            1053900400341 
  15629.996      49.90                                            1053900400342 
  15657.879      46.26                                            1053900400343 
  15661.996      39.60                                            1053900400344 
  15693.996      32.80                                            1053900400345 
  15726.996      28.80                                            1053900400346 
  15738.629      23.33                                            1053900400347 
  15791.996      24.80                                            1053900400348 
  15820.000      21.97                                            1053900400349 
  15823.996      23.20                                            1053900400350 
  15856.996      21.40                                            1053900400351 
  15902.000      23.83                                            1053900400352 
  15984.645      18.44                                            1053900400353 
  15995.996      19.30                                            1053900400354 
  16055.984      17.28                                            1053900400355 
  16151.867      15.82                                            1053900400356 
  16155.988      16.30                                            1053900400357 
  16257.992      15.20                                            1053900400358 
  16407.684      15.22                                            1053900400359 
  16464.379      14.64                                            1053900400360 
  16669.625      14.66                                            1053900400361 
  16781.258      13.09                                            1053900400362 
  16937.875      14.06                                            1053900400363 
  17107.387      13.22                                            1053900400364 
  17212.676      12.94                                            1053900400365 
  17419.996      14.00                                            1053900400366 
  17429.992      16.13                                            1053900400367 
  17439.984      17.30                                            1053900400368 
  17443.113      13.24                                            1053900400369 
  17459.988      14.35                                            1053900400370 
  17494.195      12.98                                            1053900400371 
  17782.695      12.47                                            1053900400372 
  17788.813      13.11                                            1053900400373 
  18078.379      12.21                                            1053900400374 
  18144.910      12.38                                            1053900400375 
  18381.508      12.10                                            1053900400376 
  18511.809      12.07                                            1053900400377 
  18692.332      12.31                                            1053900400378 
  18889.922      12.02                                            1053900400379 
  19011.086      12.04                                            1053900400380 
  19279.750      11.74                                            1053900400381 
  19338.066      11.87                                            1053900400382 
  19673.578      11.61                                            1053900400383 
  19681.773      12.36                                            1053900400384 
  20017.879      11.57                                            1053900400385 
  20096.508      12.37                                            1053900400386 
  20371.305      11.26                                            1053900400387 
  20524.473      12.10                                            1053900400388 
  20734.176      11.38                                            1053900400389 
  20966.273      13.68                                            1053900400390 
  21019.988      15.50                                            1053900400391 
  21049.984      19.90                                            1053900400392 
  21069.988      19.10                                            1053900400393 
  21109.984      13.10                                            1053900400394 
  21422.500      11.92                                            1053900400395 
  21489.605      11.17                                            1053900400396 
  21882.883      10.99                                            1053900400397 
  21893.750      11.72                                            1053900400398 
  22287.094      11.14                                            1053900400399 
  22380.750      12.20                                            1053900400400 
  22702.586      10.93                                            1053900400401 
  22884.184      11.41                                            1053900400402 
  23129.805      10.84                                            1053900400403 
  23404.797      10.84                                            1053900400404 
  23569.191      10.69                                            1053900400405 
  23943.371      10.69                                            1053900400406 
  24021.238      10.84                                            1053900400407 
  24486.398      10.72                                            1053900400408 
  24500.746      10.91                                            1053900400409 
  24965.203      11.02                                            1053900400410 
  25077.813      13.70                                            1053900400411 
  25127.938      11.42                                            1053900400412 
  25182.539      12.44                                            1053900400413 
  25189.984      13.80                                            1053900400414 
  25229.992      19.90                                            1053900400415 
  25237.313      18.05                                            1053900400416 
  25269.988      26.80                                            1053900400417 
  25292.262      16.57                                            1053900400418 
  25299.984      24.50                                            1053900400419 
  25319.988      16.90                                            1053900400420 
  25347.391      11.64                                            1053900400421 
  25389.980      12.10                                            1053900400422 
  25458.199      10.78                                            1053900400423 
  25625.793      10.43                                            1053900400424 
  25675.516      10.70                                            1053900400425 
  25795.023      10.09                                            1053900400426 
  25965.938       9.98                                            1053900400427 
  26085.938      10.80                                            1053900400428 
  26138.574      10.18                                            1053900400429 
  26294.859       9.87                                            1053900400430 
  26312.926       9.88                                            1053900400431 
  26489.043      10.21                                            1053900400432 
  26506.285       9.51                                            1053900400433 
  26648.984       8.88                                            1053900400434 
  26666.914       9.91                                            1053900400435 
  26720.270       9.12                                            1053900400436 
  26726.586       9.43                                            1053900400437 
  26786.496       9.25                                            1053900400438 
  26791.992       8.63                                            1053900400439 
  26846.582       8.41                                            1053900400440 
  26863.980       8.81                                            1053900400441 
  26906.875       9.08                                            1053900400442 
  26936.996       8.70                                            1053900400443 
  26967.375       7.40                                            1053900400444 
  26989.988       8.40                                            1053900400445 
  26999.984      11.00                                            1053900400446 
  27028.086      13.36                                            1053900400447 
  27032.988      15.10                                            1053900400448 
  27059.996      19.60                                            1053900400449 
  27079.984      21.90                                            1053900400450 
  27081.984      21.85                                            1053900400451 
  27089.000      16.41                                            1053900400452 
  27109.984      18.98                                            1053900400453 
  27139.980      15.46                                            1053900400454 
  27150.098      13.04                                            1053900400455 
  27156.094      15.53                                            1053900400456 
  27211.426      12.69                                            1053900400457 
  27229.992      12.75                                            1053900400458 
  27377.988      10.30                                            1053900400459 
  27396.633      11.38                                            1053900400460 
  27583.750      11.02                                            1053900400461 
  27602.676      10.19                                            1053900400462 
  27772.793      10.63                                            1053900400463 
  27830.105      10.19                                            1053900400464 
  27963.789      10.63                                            1053900400465 
  28060.348       9.73                                            1053900400466 
  28156.750      10.87                                            1053900400467 
  28293.469      10.00                                            1053900400468 
  28351.711      10.75                                            1053900400469 
  28529.520       9.94                                            1053900400470 
  28548.719      10.63                                            1053900400471 
  28747.766      11.29                                            1053900400472 
  28768.520       9.83                                            1053900400473 
  28948.926      10.93                                            1053900400474 
  29010.559       9.54                                            1053900400475 
  29152.188      11.42                                            1053900400476 
  29255.641      10.66                                            1053900400477 
  29357.617      10.69                                            1053900400478 
  29503.844      10.25                                            1053900400479 
  29565.211      10.87                                            1053900400480 
  29755.246       9.82                                            1053900400481 
  29775.004      10.26                                            1053900400482 
  29987.043       9.36                                            1053900400483 
  30009.820       9.56                                            1053900400484 
  30201.367      10.52                                            1053900400485 
  30267.711       8.56                                            1053900400486 
  30418.008       9.80                                            1053900400487 
  30528.973       9.05                                            1053900400488 
  30636.977      10.01                                            1053900400489 
  30793.594       8.69                                            1053900400490 
  30858.305       9.20                                            1053900400491 
  31061.676       8.65                                            1053900400492 
  31082.043       9.62                                            1053900400493 
  31308.242       9.08                                            1053900400494 
  31333.262       8.21                                            1053900400495 
  31536.910       9.08                                            1053900400496 
  31608.426       8.04                                            1053900400497 
  31768.074       8.46                                            1053900400498 
  31887.250       8.27                                            1053900400499 
  32001.813       7.95                                            1053900400500 
  32169.781       7.13                                            1053900400501 
  32238.137       7.27                                            1053900400502 
  32456.055       6.60                                            1053900400503 
  32477.074       7.01                                            1053900400504 
  32718.699       7.03                                            1053900400505 
  32746.195       6.15                                            1053900400506 
  32843.992       6.09                                            1053900400507 
  32963.023       6.05                                            1053900400508 
  33039.992       7.52                                            1053900400509 
  33127.426       8.73                                            1053900400510 
  33138.992      10.50                                            1053900400511 
  33210.098      13.78                                            1053900400512 
  33237.988      18.58                                            1053900400513 
  33293.059      26.03                                            1053900400514 
  33338.238      27.95                                            1053900400515 
  33376.336      33.11                                            1053900400516 
  33404.980      36.34                                            1053900400517 
  33505.996      32.01                                            1053900400518 
  33639.980      24.09                                            1053900400519 
  33843.992      17.95                                            1053900400520 
  33946.500      16.41                                            1053900400521 
  34256.910      14.09                                            1053900400522 
  34571.547      12.90                                            1053900400523 
  34890.594      11.79                                            1053900400524 
  35214.047      12.35                                            1053900400525 
  35542.035      12.06                                            1053900400526 
  35874.664      11.69                                            1053900400527 
  36211.879      11.29                                            1053900400528 
  36553.949      11.11                                            1053900400529 
  36900.875      11.12                                            1053900400530 
  37209.988      13.98                                            1053900400531 
  37249.984      17.05                                            1053900400532 
  37319.988      12.00                                            1053900400533 
  37489.988      10.88                                            1053900400534 
  37609.664      10.52                                            1053900400535 
  37971.766       9.94                                            1053900400536 
  38339.125      10.86                                            1053900400537 
  38711.805      10.33                                            1053900400538 
  39089.996      10.94                                            1053900400539 
  39129.988      11.64                                            1053900400540 
  39169.980      12.62                                            1053900400541 
  39239.988      10.40                                            1053900400542 
  39473.703       9.41                                            1053900400543 
  39863.137      10.20                                            1053900400544 
  40258.344       9.58                                            1053900400545 
  40659.422       9.11                                            1053900400546 
  41066.582       9.77                                            1053900400547 
  41479.871      10.22                                            1053900400548 
  41899.414       9.66                                            1053900400549 
  42229.992      11.20                                            1053900400550 
  42299.984      11.90                                            1053900400551 
  42325.375      11.74                                            1053900400552 
  42419.980      14.98                                            1053900400553 
  42469.984      11.55                                            1053900400554 
  42611.980       9.50                                            1053900400555 
  42757.836       9.19                                            1053900400556 
  43197.000       8.87                                            1053900400557 
  43642.926       8.73                                            1053900400558 
  44095.809       8.34                                            1053900400559 
  44555.785       8.29                                            1053900400560 
  45022.957       7.61                                            1053900400561 
  45099.988       7.20                                            1053900400562 
  45129.988       6.10                                            1053900400563 
  45339.996       8.50                                            1053900400564 
  45443.984      10.10                                            1053900400565 
  45497.984      16.00                                            1053900400566 
  45499.984      16.10                                            1053900400567 
  45549.984      22.20                                            1053900400568 
  45599.988      27.20                                            1053900400569 
  45656.980      26.80                                            1053900400570 
  45709.988      27.10                                            1053900400571 
  45759.992      20.80                                            1053900400572 
  45972.988      16.30                                            1053900400573 
  45979.719      16.06                                            1053900400574 
  46469.523      13.11                                            1053900400575 
  46967.250      11.08                                            1053900400576 
  47472.988      10.69                                            1053900400577 
  47986.949      10.99                                            1053900400578 
  48509.305      10.71                                            1053900400579 
  49040.234      10.62                                            1053900400580 
  49579.922      10.50                                            1053900400581 
  50248.563       9.88                                            1053900400582 
  50714.188      10.01                                            1053900400583 
  51186.309      10.37                                            1053900400584 
  51665.051       9.46                                            1053900400585 
  52150.555       9.08                                            1053900400586 
  52808.594      12.17                                            1053900400587 
  52975.016      10.66                                            1053900400588 
  53142.301       9.72                                            1053900400589 
  53310.348       9.00                                            1053900400590 
  53479.168       9.20                                            1053900400591 
  53648.813       9.93                                            1053900400592 
  53819.254      13.70                                            1053900400593 
  53990.520      11.87                                            1053900400594 
  54162.609      10.72                                            1053900400595 
  54683.805      10.52                                            1053900400596 
  55212.578       9.88                                            1053900400597 
  55749.078       9.98                                            1053900400598 
  56293.391       9.78                                            1053900400599 
  56845.746       9.91                                            1053900400600 
  57406.258       9.54                                            1053900400601 
  57975.098       9.91                                            1053900400602 
  58552.438       9.41                                            1053900400603 
  59138.453       9.33                                            1053900400604 
  59733.305       9.31                                            1053900400605 
  60337.172       9.18                                            1053900400606 
  60950.238       8.62                                            1053900400607 
  61364.180       8.46                                            1053900400608 
  61572.703      11.20                                            1053900400609 
  61782.328      12.47                                            1053900400610 
  61993.004      10.90                                            1053900400611 
  62204.750      10.96                                            1053900400612 
  62417.617       9.96                                            1053900400613 
  62846.582      10.12                                            1053900400614 
  63498.410       9.80                                            1053900400615 
  64160.430       9.54                                            1053900400616 
  64832.836       9.54                                            1053900400617 
  65515.879       9.08                                            1053900400618 
  66209.688       8.83                                            1053900400619 
  66914.688       8.86                                            1053900400620 
  67630.938       7.78                                            1053900400621 
  68033.938       6.80                                            1053900400622 
  68326.938       6.50                                            1053900400623 
  68329.938       4.80                                            1053900400624 
  68620.938       7.10                                            1053900400625 
  68818.938       6.10                                            1053900400626 
  68917.938       9.00                                            1053900400627 
  69016.938      13.30                                            1053900400628 
  69115.938      18.00                                            1053900400629 
  69215.625      17.58                                            1053900400630 
  69364.938      24.80                                            1053900400631 
  70121.938      15.90                                            1053900400632 
  70427.938      14.20                                            1053900400633 
  71046.250      12.30                                            1053900400634 
  71988.938      11.13                                            1053900400635 
  72306.938      10.46                                            1053900400636 
  72520.750      11.86                                            1053900400637 
  72627.813      14.00                                            1053900400638 
  72735.125      12.53                                            1053900400639 
  72950.500      11.40                                            1053900400640 
  73602.250      10.68                                            1053900400641 
  73931.438      10.27                                            1053900400642 
  74932.313      10.15                                            1053900400643 
ENDDATA            636          0                                 1053900400644 
ENDSUBENT          643          0                                 1053900499999 
SUBENT        10539005   20040511                             00001053900500001 
BIB                  3          6                                 1053900500002 
REACTION  1(83-BI-209(N,0),,EN)                                   1053900500003 
          2(83-BI-209(N,EL),,WID)                                 1053900500004 
          3(83-BI-209(N,0),,J)                                    1053900500005 
          4(83-BI-209(N,0),,L)                                    1053900500006 
ANALYSIS   R-matrix analysis                                      1053900500007 
HISTORY    (19830901A) J added from subentry 2.                   1053900500008 
ENDBIB               6          0                                 1053900500009 
NOCOMMON             0          0                                 1053900500010 
DATA                 5          9                                 1053900500011 
DATA      1DATA      2DATA-ERR  2DATA      3DATA      4           1053900500012 
KEV        EV         EV         NO-DIM     NO-DIM                1053900500013 
 0.800       4.6        0.4       5.         0.                   1053900500014 
 2.312      19.5        1.0       4.         0.                   1053900500015 
 5.112       5.4        0.6       5.         0.                   1053900500016 
12.15      270.        45.        4.         0.                   1053900500017 
15.54      118.        20.        4.         0.                   1053900500018 
27.08       24.         6.        4.         0.                   1053900500019 
33.34      240.        40.        4.         0.                   1053900500020 
45.58      160.        30.        5.         0.                   1053900500021 
69.18      520.        70.        5.         0.                   1053900500022 
ENDDATA             11          0                                 1053900500023 
ENDSUBENT           22          0                                 1053900599999 
ENDENTRY             5          0                                 1053999999999 
