ENTRY            10564   20131205                             13961056400000001 
SUBENT        10564001   20131205                             13961056400100001 
BIB                 13         50                                 1056400100002 
TITLE      Parameters of the subthreshold fission structure in    1056400100003 
           240Pu                                                  1056400100004 
AUTHOR     (G.F.Auchampaugh,L.W.Weston)                           1056400100005 
REFERENCE  (J,PR/C,12,1850,197512)                                1056400100006 
           #doi:10.1103/PhysRevC.12.1850                          1056400100007 
           (C,75WASH,2,560,197503)                                1056400100008 
REL-REF    (M,,M.Forte,C,58GENEVA,15,(A),1514,1958)               1056400100009 
INSTITUTE  (1USALAS,1USAORL)                                      1056400100010 
FACILITY   (LINAC,1USAORL) Oak Ridge electron linear accelerator  1056400100011 
INC-SOURCE (PHOTO) Electrons on tantalum target.                  1056400100012 
SAMPLE     There were 3 samples:                                  1056400100013 
           - Pu-240 sample: 12 g of S and 10.23 g of PuO2 which   1056400100014 
           had 98.47% enrichment in Pu-240;                       1056400100015 
           - Pu-239 sample: Metal alloy, mixture of 98.47% Pu     1056400100016 
           and 1.07% Al.                                          1056400100017 
           - U-238 sample (99.99% U-238) was in metallic form and 1056400100018 
           used for background subtraction.                       1056400100019 
PART-DET   (N)                                                    1056400100020 
DETECTOR   (SCIN) Two NE-213 liquid scintillators (10 cm in       1056400100021 
           diameter by 5 cm thick) mounted on 12.7-cm-diam        1056400100022 
           photomultipliers (58 AVP) were used as fission neutron 1056400100023 
           detectors.                                             1056400100024 
METHOD     (TOF,PSD) 20-m flight path was used for the            1056400100025 
           measurement. Data were taken on samples of 240Pu,      1056400100026 
           239Pu, and 238U. The efficiency for detecting a fission1056400100027 
           event by counting fission neutrons was about 5.0% per  1056400100028 
           detector. Pulse-shape discrimination (PSD) of the      1056400100029 
           type developed by Forte was used on the signals from   1056400100030 
           each detector. The neutron TOF spectrum contained a    1056400100031 
           gamma-ray background caused by gamma rays that were    1056400100032 
           mistagged as neutrons in the PSD circuit. This         1056400100033 
           background was removed from the data by subtracting    1056400100034 
           from the neutron TOF spectrum a fraction K of the      1056400100035 
           corresponding gamma-ray TOF spectrum. K was            1056400100036 
           determined from the ratios of resonance areas in the   1056400100037 
           gamma-ray TOF spectrum to the corresponding areas in   1056400100038 
           the neutron TOF spectrum for 20 capture resonances in  1056400100039 
           238U (10 to 500 eV) and for 6 assumed capture-only     1056400100040 
           resonances in 240Pu (40 to 140 eV). To normalize       1056400100041 
           detector efficiency authors used partial half-life     1056400100042 
           for 240Pu(SF) of 1.4xE11 yrs.                          1056400100043 
CORRECTION Data corrected for system dead-time, detector          1056400100044 
           efficiency, flux monitor efficiency. Small correction  1056400100045 
           for multiple scattering and self-shielding effects     1056400100046 
           was not made.                                          1056400100047 
HISTORY    (19760112C)                                            1056400100048 
           (19830914A) converted to reaction formalism            1056400100049 
           (20040602A) converted to new date formats, lower case. 1056400100050 
           (20131205A) BP: Updated subentries, added doi,         1056400100051 
           digitized Fig.2.                                       1056400100052 
ENDBIB              50          0                                 1056400100053 
NOCOMMON             0          0                                 1056400100054 
ENDSUBENT           53          0                                 1056400199999 
SUBENT        10564002   20131205                             13961056400200001 
BIB                  7         18                                 1056400200002 
REACTION  1(94-PU-240(N,0),,EN)                                   1056400200003 
          2(94-PU-240(N,F),,WID)                                  1056400200004 
STATUS     (APRVD) Approved by author 1976/3/15                   1056400200005 
           (TABLE) Table I, p. 1853, Phys.Rev.C,12,1850,1975      1056400200006 
ANALYSIS   (AREA,SHAPE,SLA) In fitting these data authors used    1056400200007 
           for the resolution function a convolution of a         1056400200008 
           Gaussian and an exponential with e-folding widths      1056400200009 
            (eV) of 1.23E (keV) and 1.11E (keV), respectively.    1056400200010 
           These parameters were determined by fitting the        1056400200011 
           shapes of small fission width resonances with this     1056400200012 
           functional form.                                       1056400200013 
ASSUMED    (ASSUM,94-PU-240(N,EL),,WID/RED)                       1056400200014 
           Fission widths determined using reduced neutron widths 1056400200015 
           given by Kolar and Bockhoff, J.Nuc.En.,22, 299 (1968). 1056400200016 
REL-REF    (R,20117005,W.Kolar+,J,JNE,22,299,1968)                1056400200017 
ERR-ANALYS (DATA-ERR) Data errors given are statistical errors on 1056400200018 
           fission widths plus errors of assumed neutron widths.  1056400200019 
COMMENT    Class I resonance parameters.                          1056400200020 
ENDBIB              18          0                                 1056400200021 
COMMON               1          3                                 1056400200022 
MOMENTUM L                                                        1056400200023 
NO-DIM                                                            1056400200024 
 0.                                                               1056400200025 
ENDCOMMON            3          0                                 1056400200026 
DATA                 8         82                                 1056400200027 
DATA      1DATA      2DATA-MIN  2DATA-MAX  2+DATA-ERR 2-DATA-ERR 21056400200028 
ASSUM      ASSUM-ERR                                              1056400200029 
EV         MILLI-EV   MILLI-EV   MILLI-EV   MILLI-EV   MILLI-EV   1056400200030 
MILLI-EV   MILLI-EV                                               1056400200031 
       608.       0.06                             0.05       0.051056400200032 
       0.92       0.06                                            1056400200033 
       632.       0.44                             0.09       0.091056400200034 
       0.53       0.05                                            1056400200035 
       637.       0.17                             0.06       0.061056400200036 
       0.46       0.05                                            1056400200037 
       665.       0.48                             0.05       0.051056400200038 
       7.64       0.31                                            1056400200039 
       678.       0.78                             0.08       0.081056400200040 
       1.00       0.07                                            1056400200041 
       712.       0.80                             0.90       0.401056400200042 
      0.050      0.023                                            1056400200043 
       743.        3.0                             34.0        2.41056400200044 
      0.037      0.026                                            1056400200045 
       750.      12.70                             0.95       0.951056400200046 
       2.49       0.12                                            1056400200047 
       759.       1.42                             0.59       0.591056400200048 
       0.22       0.03                                            1056400200049 
       779.                   10.       100.                      1056400200050 
      0.007      0.015                                            1056400200051 
      782.4     -1450.                             400.       400.1056400200052 
      0.130      0.002                                            1056400200053 
      791.4      -12.5                              0.4        0.41056400200054 
       0.85       0.05                                            1056400200055 
      811.0       11.6                              0.1        0.11056400200056 
       7.52       0.35                                            1056400200057 
      820.3       1.10                             0.02       0.021056400200058 
       3.84       0.19                                            1056400200059 
       846.       0.93                             0.14       0.141056400200060 
       0.35       0.03                                            1056400200061 
       855.       0.30                             0.05       0.051056400200062 
       1.64       0.09                                            1056400200063 
       876.       0.96                             0.13       0.131056400200064 
       0.47       0.04                                            1056400200065 
       891.       1.32                             0.09       0.091056400200066 
       3.16       0.15                                            1056400200067 
       904.       0.67                             0.08       0.081056400200068 
       0.73       0.05                                            1056400200069 
       909.       0.06                             0.04       0.041056400200070 
       2.62       0.13                                            1056400200071 
       915.       0.56                             0.07       0.071056400200072 
       1.19       0.07                                            1056400200073 
       943.       0.32                             0.05       0.051056400200074 
       4.00       0.18                                            1056400200075 
       958.       0.19                             0.05       0.051056400200076 
       2.31       0.16                                            1056400200077 
       971.       0.41                             0.05       0.051056400200078 
       2.58       0.13                                            1056400200079 
       979.       1.10                             0.30       0.201056400200080 
       0.23       0.05                                            1056400200081 
      1002.       1.12                             0.08       0.081056400200082 
       3.10       0.16                                            1056400200083 
      1042.       1.13                             0.20       0.201056400200084 
       0.39       0.06                                            1056400200085 
      1073.       0.31                             0.05       0.051056400200086 
       3.34       0.17                                            1056400200087 
      1099.       0.25                             0.05       0.051056400200088 
       2.54       0.26                                            1056400200089 
      1129.       0.70                             0.08       0.081056400200090 
       1.49       0.09                                            1056400200091 
      1134.       0.60                              0.3        0.21056400200092 
       0.20       0.06                                            1056400200093 
      1143.       0.12                             0.04       0.041056400200094 
       1.20       0.08                                            1056400200095 
      1159.       0.28                             0.07       0.071056400200096 
       0.65       0.06                                            1056400200097 
      1185.       0.30                             0.06       0.061056400200098 
       4.57       0.23                                            1056400200099 
      1191.       0.34                             0.06       0.061056400200100 
       3.33       0.17                                            1056400200101 
      1208.       0.13                             0.05       0.051056400200102 
       1.81       0.11                                            1056400200103 
      1236.       0.59                             0.16       0.161056400200104 
       0.32       0.06                                            1056400200105 
      1255.       1.79                             0.13       0.131056400200106 
       2.17       0.13                                            1056400200107 
      1301.       1.47                             0.10       0.101056400200108 
       6.79       0.35                                            1056400200109 
      1329.       0.84                             0.06       0.061056400200110 
      10.13       0.51                                            1056400200111 
      1345.       0.47                             0.09       0.091056400200112 
       0.71       0.08                                            1056400200113 
      1363.       0.70                             0.60       0.201056400200114 
       0.20       0.08                                            1056400200115 
      1377.       1.10                             0.10       0.101056400200116 
       1.74       0.12                                            1056400200117 
      1389.        5.0                              0.2        0.21056400200118 
       0.38       0.07                                            1056400200119 
     1402.2                -2000.      2000.       200.       200.1056400200120 
       0.22       0.01                                            1056400200121 
     1408.5                -1500.      1500.       200.       200.1056400200122 
       0.23       0.01                                            1056400200123 
      1426.        5.3                              0.1        0.11056400200124 
       0.97       0.10                                            1056400200125 
      1430.        1.6                              0.3        0.31056400200126 
        0.4        0.2                                            1056400200127 
      1450.       3.42                             0.27       0.271056400200128 
       1.67       0.14                                            1056400200129 
      1466.       2.71                             0.42       0.421056400200130 
       0.55       0.09                                            1056400200131 
      1484.       1.70                             0.80       0.401056400200132 
       0.24       0.08                                            1056400200133 
      1576.       0.51                             0.06       0.061056400200134 
       3.18       0.19                                            1056400200135 
      1610.       1.12                             0.14       0.141056400200136 
       0.87       0.10                                            1056400200137 
      1688.       1.07                             0.15       0.151056400200138 
       0.80       0.10                                            1056400200139 
      1724.       2.16                             0.16       0.161056400200140 
       2.01       0.16                                            1056400200141 
      1742.       0.83                             0.16       0.161056400200142 
       0.60       0.10                                            1056400200143 
      1764.       0.65                             0.09       0.091056400200144 
       1.23       0.11                                            1056400200145 
      1841.      10.70                             0.74       0.741056400200146 
       2.93       0.21                                            1056400200147 
      1853.       4.15                             0.55       0.551056400200148 
       0.80       0.13                                            1056400200149 
      1873.       4.91                             0.39       0.391056400200150 
       1.79       0.16                                            1056400200151 
      1901.        3.0                              0.1        0.11056400200152 
       4.80       0.29                                            1056400200153 
      1917.       70.0                              1.0        1.01056400200154 
       0.82       0.14                                            1056400200155 
      1936.     -2200.                             600.       600.1056400200156 
      0.045      0.005                                            1056400200157 
      1944.        1.8                              0.4        0.41056400200158 
       0.18       0.11                                            1056400200159 
      1950.        6.3                             0.10       0.101056400200160 
       1.87       0.17                                            1056400200161 
      1957.       25.0                             0.20       0.201056400200162 
       5.90       0.36                                            1056400200163 
      1973.       1.80                             0.10       0.101056400200164 
       1.53       0.17                                            1056400200165 
      2016.       2.64                             0.29       0.291056400200166 
       1.17       0.17                                            1056400200167 
      2034.       9.79                             0.77       0.771056400200168 
       2.25       0.21                                            1056400200169 
      2056.       5.73                             0.51       0.511056400200170 
       1.51       0.17                                            1056400200171 
      2154.       2.28                             1.00       1.001056400200172 
       0.31       0.15                                            1056400200173 
      2178.       0.36                             0.07       0.071056400200174 
       1.83       0.18                                            1056400200175 
      2577.       0.48                             0.14       0.141056400200176 
       0.94       0.19                                            1056400200177 
      2639.       5.22                             1.29       1.291056400200178 
       8.29       0.83                                            1056400200179 
      2652.      14.46                             2.95       2.951056400200180 
       0.71       0.16                                            1056400200181 
      2695.       164.                              18.        18.1056400200182 
       6.64       0.50                                            1056400200183 
      2719.       5.29                             0.92       0.921056400200184 
       0.78       0.19                                            1056400200185 
      2741.       1.74                             0.35       0.351056400200186 
       3.38       0.34                                            1056400200187 
      2750.      11.17                             1.10       1.101056400200188 
       1.95       0.25                                            1056400200189 
      2819.       1.98                             0.36       0.361056400200190 
       0.78       0.19                                            1056400200191 
      2845.       0.69                             0.11       0.111056400200192 
       2.94       0.30                                            1056400200193 
      2860.       2.81                             0.85       0.851056400200194 
       0.51       0.21                                            1056400200195 
ENDDATA            168          0                                 1056400200196 
ENDSUBENT          195          0                                 1056400299999 
SUBENT        10564003   20131205                             13961056400300001 
BIB                  5         10                                 1056400300002 
REACTION   (94-PU-240(N,F),,SIG)                                  1056400300003 
STATUS     (CURVE) Fig.2, page 1854; Fig. 1, page 1852 is not     1056400300004 
           suitable for digitizing.                               1056400300005 
MONITOR    (94-PU-239(N,F),,SIG)                                  1056400300006 
           Neutron spectrum shape monitored by 10B parallel plate 1056400300007 
           ionization chamber. 240Pu data normalized to 239Pu     1056400300008 
           fission cross section over the interval from 600 to    1056400300009 
           1000 eV from ENDF/B-IV.                                1056400300010 
MONIT-REF  (,,3,ENDF/B-IV,1264,1974)                              1056400300011 
COMMENT    Class II states.                                       1056400300012 
ENDBIB              10          0                                 1056400300013 
COMMON               2          3                                 1056400300014 
EN-NRM-MIN EN-NRM-MAX                                             1056400300015 
EV         EV                                                     1056400300016 
600.0      1000.0                                                 1056400300017 
ENDCOMMON            3          0                                 1056400300018 
DATA                 2        419                                 1056400300019 
EN         DATA                                                   1056400300020 
EV         B                                                      1056400300021 
    770.790      0.073                                            1056400300022 
    771.593      0.074                                            1056400300023 
    772.281      0.075                                            1056400300024 
    773.084      0.076                                            1056400300025 
    773.887      0.113                                            1056400300026 
    774.805      0.078                                            1056400300027 
    775.722      0.151                                            1056400300028 
    776.525      0.152                                            1056400300029 
    776.983      0.261                                            1056400300030 
    777.556      0.262                                            1056400300031 
    777.899      0.371                                            1056400300032 
    778.358      0.335                                            1056400300033 
    778.586      0.517                                            1056400300034 
    779.273      0.590                                            1056400300035 
    779.615      0.807                                            1056400300036 
    779.842      0.988                                            1056400300037 
    780.068      1.242                                            1056400300038 
    780.296      1.423                                            1056400300039 
    780.523      1.604                                            1056400300040 
    780.750      1.785                                            1056400300041 
    780.862      2.038                                            1056400300042 
    781.087      2.364                                            1056400300043 
    781.313      2.654                                            1056400300044 
    781.419      3.341                                            1056400300045 
    781.424      2.979                                            1056400300046 
    781.645      3.667                                            1056400300047 
    781.984      4.065                                            1056400300048 
    782.209      4.463                                            1056400300049 
    782.549      4.825                                            1056400300050 
    783.008      4.753                                            1056400300051 
    783.357      4.428                                            1056400300052 
    783.590      4.103                                            1056400300053 
    783.823      3.778                                            1056400300054 
    783.942      3.452                                            1056400300055 
    784.062      3.055                                            1056400300056 
    784.296      2.621                                            1056400300057 
    784.417      2.151                                            1056400300058 
    784.766      1.754                                            1056400300059 
    784.885      1.392                                            1056400300060 
    785.118      1.103                                            1056400300061 
    785.580      0.850                                            1056400300062 
    786.042      0.598                                            1056400300063 
    786.846      0.490                                            1056400300064 
    787.419      0.527                                            1056400300065 
    787.761      0.708                                            1056400300066 
    788.104      0.817                                            1056400300067 
    788.331      1.035                                            1056400300068 
    788.671      1.360                                            1056400300069 
    789.009      1.867                                            1056400300070 
    789.231      2.518                                            1056400300071 
    789.452      3.170                                            1056400300072 
    789.668      4.255                                            1056400300073 
    790.000      5.304                                            1056400300074 
    790.326      6.823                                            1056400300075 
    790.424      8.162                                            1056400300076 
    790.753      9.428                                            1056400300077 
    791.085     10.405                                            1056400300078 
    791.193     10.947                                            1056400300079 
    791.416     11.490                                            1056400300080 
    791.769     10.803                                            1056400300081 
    792.010      9.791                                            1056400300082 
    792.259      8.236                                            1056400300083 
    792.508      6.609                                            1056400300084 
    792.646      4.692                                            1056400300085 
    792.893      3.210                                            1056400300086 
    793.250      2.162                                            1056400300087 
    793.377      1.185                                            1056400300088 
    793.724      0.933                                            1056400300089 
    793.958      0.535                                            1056400300090 
    794.419      0.391                                            1056400300091 
    795.338      0.320                                            1056400300092 
    796.370      0.357                                            1056400300093 
    797.174      0.286                                            1056400300094 
    798.091      0.287                                            1056400300095 
    799.009      0.288                                            1056400300096 
    800.042      0.289                                            1056400300097 
    800.959      0.290                                            1056400300098 
    801.762      0.364                                            1056400300099 
    802.334      0.437                                            1056400300100 
    802.907      0.474                                            1056400300101 
    803.368      0.293                                            1056400300102 
    803.940      0.439                                            1056400300103 
    804.744      0.367                                            1056400300104 
    805.546      0.441                                            1056400300105 
    806.347      0.659                                            1056400300106 
    807.033      0.840                                            1056400300107 
    807.144      1.130                                            1056400300108 
    807.485      1.419                                            1056400300109 
    807.823      1.926                                            1056400300110 
    808.161      2.433                                            1056400300111 
    808.496      3.156                                            1056400300112 
    808.600      4.061                                            1056400300113 
    809.043      5.363                                            1056400300114 
    809.141      6.774                                            1056400300115 
    809.582      8.257                                            1056400300116 
    809.669     10.499                                            1056400300117 
    809.876     12.380                                            1056400300118 
    810.175     16.069                                            1056400300119 
    810.197     14.261                                            1056400300120 
    810.966     17.083                                            1056400300121 
    811.448     15.203                                            1056400300122 
    811.702     13.142                                            1056400300123 
    811.960     10.792                                            1056400300124 
    812.334      8.333                                            1056400300125 
    812.481      5.657                                            1056400300126 
    812.732      3.885                                            1056400300127 
    812.864      2.475                                            1056400300128 
    813.220      1.499                                            1056400300129 
    813.456      0.993                                            1056400300130 
    813.805      0.559                                            1056400300131 
    814.152      0.342                                            1056400300132 
    814.727      0.198                                            1056400300133 
    815.530      0.199                                            1056400300134 
    816.448      0.201                                            1056400300135 
    816.906      0.310                                            1056400300136 
    817.594      0.310                                            1056400300137 
    818.051      0.492                                            1056400300138 
    818.507      0.673                                            1056400300139 
    818.620      0.854                                            1056400300140 
    819.076      1.072                                            1056400300141 
    819.303      1.289                                            1056400300142 
    819.530      1.506                                            1056400300143 
    819.872      1.687                                            1056400300144 
    820.214      1.833                                            1056400300145 
    820.560      1.688                                            1056400300146 
    820.907      1.472                                            1056400300147 
    821.254      1.219                                            1056400300148 
    821.486      1.038                                            1056400300149 
    821.720      0.641                                            1056400300150 
    822.067      0.388                                            1056400300151 
    822.413      0.280                                            1056400300152 
    822.873      0.172                                            1056400300153 
    823.676      0.173                                            1056400300154 
    824.364      0.210                                            1056400300155 
    824.937      0.211                                            1056400300156 
    825.397      0.139                                            1056400300157 
    825.972      0.067                                            1056400300158 
    826.430      0.068                                            1056400300159 
    827.233      0.105                                            1056400300160 
    828.037      0.070                                            1056400300161 
    828.725      0.071                                            1056400300162 
    829.298      0.108                                            1056400300163 
    829.986      0.108                                            1056400300164 
   1380.728      0.073                                            1056400300165 
   1381.159      0.037                                            1056400300166 
   1381.696      0.019                                            1056400300167 
   1382.341      0.002                                            1056400300168 
   1382.876      0.039                                            1056400300169 
   1383.521      0.021                                            1056400300170 
   1384.055      0.094                                            1056400300171 
   1384.697      0.166                                            1056400300172 
   1384.914      0.094                                            1056400300173 
   1385.340      0.185                                            1056400300174 
   1386.089      0.276                                            1056400300175 
   1386.298      0.438                                            1056400300176 
   1386.726      0.492                                            1056400300177 
   1386.830      0.583                                            1056400300178 
   1387.256      0.673                                            1056400300179 
   1387.574      0.800                                            1056400300180 
   1387.892      0.926                                            1056400300181 
   1388.424      1.089                                            1056400300182 
   1388.954      1.287                                            1056400300183 
   1389.598      1.288                                            1056400300184 
   1390.138      1.180                                            1056400300185 
   1390.464      1.054                                            1056400300186 
   1390.899      0.875                                            1056400300187 
   1391.011      0.731                                            1056400300188 
   1391.337      0.623                                            1056400300189 
   1391.555      0.515                                            1056400300190 
   1391.881      0.389                                            1056400300191 
   1392.207      0.263                                            1056400300192 
   1392.532      0.173                                            1056400300193 
   1393.069      0.156                                            1056400300194 
   1393.606      0.156                                            1056400300195 
   1394.037      0.103                                            1056400300196 
   1394.356      0.193                                            1056400300197 
   1394.893      0.175                                            1056400300198 
   1395.427      0.266                                            1056400300199 
   1395.962      0.303                                            1056400300200 
   1396.388      0.411                                            1056400300201 
   1396.815      0.484                                            1056400300202 
   1397.242      0.574                                            1056400300203 
   1397.559      0.736                                            1056400300204 
   1397.876      0.881                                            1056400300205 
   1398.300      1.043                                            1056400300206 
   1398.508      1.260                                            1056400300207 
   1398.928      1.548                                            1056400300208 
   1399.347      1.873                                            1056400300209 
   1399.767      2.162                                            1056400300210 
   1399.975      2.360                                            1056400300211 
   1400.285      2.739                                            1056400300212 
   1400.597      3.063                                            1056400300213 
   1401.016      3.388                                            1056400300214 
   1401.222      3.641                                            1056400300215 
   1401.539      3.803                                            1056400300216 
   1402.067      4.074                                            1056400300217 
   1402.819      4.056                                            1056400300218 
   1403.253      3.913                                            1056400300219 
   1403.354      4.129                                            1056400300220 
   1403.471      3.823                                            1056400300221 
   1403.583      3.661                                            1056400300222 
   1404.016      3.553                                            1056400300223 
   1404.128      3.409                                            1056400300224 
   1404.454      3.265                                            1056400300225 
   1404.780      3.157                                            1056400300226 
   1405.214      3.013                                            1056400300227 
   1405.750      3.032                                            1056400300228 
   1406.068      3.140                                            1056400300229 
   1406.702      3.465                                            1056400300230 
   1407.125      3.682                                            1056400300231 
   1407.440      3.898                                            1056400300232 
   1407.863      4.079                                            1056400300233 
   1408.072      4.259                                            1056400300234 
   1408.604      4.404                                            1056400300235 
   1409.143      4.350                                            1056400300236 
   1409.576      4.207                                            1056400300237 
   1409.905      4.009                                            1056400300238 
   1410.127      3.757                                            1056400300239 
   1410.462      3.379                                            1056400300240 
   1410.794      3.055                                            1056400300241 
   1411.133      2.532                                            1056400300242 
   1411.359      2.172                                            1056400300243 
   1411.584      1.848                                            1056400300244 
   1412.027      1.416                                            1056400300245 
   1412.250      1.146                                            1056400300246 
   1412.579      0.930                                            1056400300247 
   1412.803      0.660                                            1056400300248 
   1413.128      0.552                                            1056400300249 
   1413.348      0.390                                            1056400300250 
   1413.565      0.300                                            1056400300251 
   1414.321      0.175                                            1056400300252 
   1414.967      0.103                                            1056400300253 
   1415.504      0.086                                            1056400300254 
   1415.934      0.068                                            1056400300255 
   1416.579      0.033                                            1056400300256 
   1417.115      0.069                                            1056400300257 
   1417.758      0.088                                            1056400300258 
   1418.082      0.034                                            1056400300259 
   1418.726      0.035                                            1056400300260 
   1419.261      0.071                                            1056400300261 
   1419.906      0.054                                            1056400300262 
   1420.656      0.091                                            1056400300263 
   1421.727      0.182                                            1056400300264 
   1422.368      0.272                                            1056400300265 
   1422.901      0.381                                            1056400300266 
   1423.434      0.507                                            1056400300267 
   1423.751      0.634                                            1056400300268 
   1424.070      0.742                                            1056400300269 
   1424.492      0.977                                            1056400300270 
   1424.811      1.067                                            1056400300271 
   1425.232      1.320                                            1056400300272 
   1425.759      1.627                                            1056400300273 
   1426.394      1.897                                            1056400300274 
   1426.929      1.952                                            1056400300275 
   1427.139      2.096                                            1056400300276 
   1427.467      1.934                                            1056400300277 
   1427.899      1.845                                            1056400300278 
   1428.014      1.611                                            1056400300279 
   1428.339      1.503                                            1056400300280 
   1428.562      1.233                                            1056400300281 
   1428.887      1.143                                            1056400300282 
   1429.212      1.053                                            1056400300283 
   1429.651      0.747                                            1056400300284 
   1429.651      0.747                                            1056400300285 
   1429.979      0.567                                            1056400300286 
   1430.519      0.478                                            1056400300287 
   1430.737      0.370                                            1056400300288 
   1431.168      0.298                                            1056400300289 
   1431.599      0.245                                            1056400300290 
   1432.139      0.137                                            1056400300291 
   1432.570      0.101                                            1056400300292 
   1433.431      0.030                                            1056400300293 
   1434.075      0.031                                            1056400300294 
   1435.470      0.032                                            1056400300295 
   1436.220      0.087                                            1056400300296 
   1437.507      0.106                                            1056400300297 
   1437.724      0.052                                            1056400300298 
   1439.009      0.143                                            1056400300299 
   1439.546      0.126                                            1056400300300 
   1440.080      0.198                                            1056400300301 
   1883.191      0.000                                            1056400300302 
   1884.433      0.000                                            1056400300303 
   1885.496      0.000                                            1056400300304 
   1886.206      0.038                                            1056400300305 
   1887.624      0.038                                            1056400300306 
   1888.865      0.000                                            1056400300307 
   1890.106      0.000                                            1056400300308 
   1891.348      0.000                                            1056400300309 
   1892.411      0.019                                            1056400300310 
   1893.652      0.057                                            1056400300311 
   1894.716      0.038                                            1056400300312 
   1895.603      0.153                                            1056400300313 
   1896.667      0.230                                            1056400300314 
   1897.553      0.307                                            1056400300315 
   1898.262      0.402                                            1056400300316 
   1898.972      0.517                                            1056400300317 
   1899.681      0.594                                            1056400300318 
   1900.213      0.747                                            1056400300319 
   1901.277      0.862                                            1056400300320 
   1901.631      0.939                                            1056400300321 
   1902.518      0.939                                            1056400300322 
   1903.404      0.843                                            1056400300323 
   1903.759      0.690                                            1056400300324 
   1904.468      0.575                                            1056400300325 
   1905.177      0.498                                            1056400300326 
   1905.709      0.345                                            1056400300327 
   1906.418      0.287                                            1056400300328 
   1907.305      0.249                                            1056400300329 
   1907.837      0.307                                            1056400300330 
   1908.723      0.364                                            1056400300331 
   1909.078      0.441                                            1056400300332 
   1909.787      0.632                                            1056400300333 
   1910.496      0.785                                            1056400300334 
   1911.206      1.015                                            1056400300335 
   1911.383      1.207                                            1056400300336 
   1911.560      1.379                                            1056400300337 
   1912.092      1.571                                            1056400300338 
   1912.624      1.858                                            1056400300339 
   1912.801      2.165                                            1056400300340 
   1913.333      2.586                                            1056400300341 
   1913.688      2.931                                            1056400300342 
   1914.220      3.429                                            1056400300343 
   1914.574      4.099                                            1056400300344 
   1914.929      4.827                                            1056400300345 
   1915.461      5.460                                            1056400300346 
   1915.816      6.034                                            1056400300347 
   1916.170      6.398                                            1056400300348 
   1916.879      6.858                                            1056400300349 
   1917.589      6.992                                            1056400300350 
   1918.475      6.609                                            1056400300351 
   1918.652      6.092                                            1056400300352 
   1919.007      5.536                                            1056400300353 
   1919.362      4.521                                            1056400300354 
   1919.894      3.486                                            1056400300355 
   1920.426      2.720                                            1056400300356 
   1920.780      1.954                                            1056400300357 
   1920.957      1.571                                            1056400300358 
   1921.312      1.188                                            1056400300359 
   1921.489      0.785                                            1056400300360 
   1922.199      0.402                                            1056400300361 
   1922.730      0.268                                            1056400300362 
   1923.617      0.172                                            1056400300363 
   1924.504      0.096                                            1056400300364 
   1925.567      0.115                                            1056400300365 
   1926.631      0.115                                            1056400300366 
   1928.050      0.192                                            1056400300367 
   1929.291      0.153                                            1056400300368 
   1930.532      0.192                                            1056400300369 
   1931.064      0.287                                            1056400300370 
   1932.305      0.249                                            1056400300371 
   1933.191      0.364                                            1056400300372 
   1934.078      0.441                                            1056400300373 
   1934.965      0.556                                            1056400300374 
   1936.028      0.651                                            1056400300375 
   1936.738      0.632                                            1056400300376 
   1937.447      0.575                                            1056400300377 
   1938.511      0.556                                            1056400300378 
   1939.397      0.479                                            1056400300379 
   1940.106      0.498                                            1056400300380 
   1940.816      0.402                                            1056400300381 
   1941.702      0.498                                            1056400300382 
   1942.943      0.594                                            1056400300383 
   1944.007      0.670                                            1056400300384 
   1944.539      0.785                                            1056400300385 
   1945.071      0.881                                            1056400300386 
   1945.603      0.996                                            1056400300387 
   1946.135      1.149                                            1056400300388 
   1946.667      1.207                                            1056400300389 
   1947.199      1.437                                            1056400300390 
   1947.553      1.609                                            1056400300391 
   1948.085      1.801                                            1056400300392 
   1948.440      1.973                                            1056400300393 
   1948.972      2.241                                            1056400300394 
   1949.504      2.471                                            1056400300395 
   1950.567      2.605                                            1056400300396 
   1951.277      2.797                                            1056400300397 
   1952.163      2.969                                            1056400300398 
   1952.695      3.352                                            1056400300399 
   1953.050      3.582                                            1056400300400 
   1953.582      4.080                                            1056400300401 
   1953.936      4.406                                            1056400300402 
   1954.468      5.000                                            1056400300403 
   1955.000      5.364                                            1056400300404 
   1955.532      5.900                                            1056400300405 
   1955.709      6.437                                            1056400300406 
   1956.064      6.686                                            1056400300407 
   1956.950      6.858                                            1056400300408 
   1957.305      6.609                                            1056400300409 
   1957.482      6.417                                            1056400300410 
   1958.014      5.766                                            1056400300411 
   1958.369      4.923                                            1056400300412 
   1958.901      4.387                                            1056400300413 
   1959.078      3.927                                            1056400300414 
   1959.433      3.372                                            1056400300415 
   1959.787      2.835                                            1056400300416 
   1960.142      2.471                                            1056400300417 
   1960.496      1.801                                            1056400300418 
   1960.851      1.169                                            1056400300419 
   1961.383      0.670                                            1056400300420 
   1961.915      0.402                                            1056400300421 
   1962.624      0.211                                            1056400300422 
   1963.511      0.134                                            1056400300423 
   1964.752      0.096                                            1056400300424 
   1965.993      0.115                                            1056400300425 
   1967.057      0.134                                            1056400300426 
   1968.652      0.153                                            1056400300427 
   1969.362      0.268                                            1056400300428 
   1970.426      0.287                                            1056400300429 
   1971.312      0.479                                            1056400300430 
   1971.844      0.441                                            1056400300431 
   1972.730      0.517                                            1056400300432 
   1973.440      0.594                                            1056400300433 
   1974.504      0.498                                            1056400300434 
   1975.567      0.383                                            1056400300435 
   1976.277      0.307                                            1056400300436 
   1976.809      0.211                                            1056400300437 
   1977.340      0.096                                            1056400300438 
   1978.404      0.115                                            1056400300439 
   1979.823      0.038                                            1056400300440 
ENDDATA            421          0                                 1056400300441 
ENDSUBENT          440          0                                 1056400399999 
ENDENTRY             3          0                                 1056499999999 
