ENTRY            10588   20040723                             00001058800000001 
SUBENT        10588001   20040723                             00001058800100001 
BIB                 10         17                                 1058800100002 
INSTITUTE  (1USARPI)                                              1058800100003 
REFERENCE  (P,USNDC-9,170,197312)                                 1058800100004 
AUTHOR     (F.L.Green,K.A.Nadolny,P.Stoler)                       1058800100005 
TITLE      Total neutron cross section of 235U.                   1058800100006 
FACILITY   (LINAC,1USARPI)                                        1058800100007 
METHOD     (TOF) Time of flight.  250-meter flight path.          1058800100008 
DETECTOR   (SCIN) Proton recoil scintillator.                     1058800100009 
ERR-ANALYS (DATA-ERR) No information on source of uncertainty.    1058800100010 
           Systematic errors estimated to be 1% above 1 MeV to    1058800100011 
            about 15 MeV, and may become slightly worse at higher 1058800100012 
            energies.                                             1058800100013 
STATUS     No reply to author proof.                              1058800100014 
            Data taken from private comm., Stoler, 1976/3.        1058800100015 
HISTORY    (19760317C)                                            1058800100016 
           (19800506U) Converted to REACTION formalism.           1058800100017 
           (19830922A) BIB update.                                1058800100018 
           (20040723A) Converted to new data formts, lower case.  1058800100019 
ENDBIB              17          0                                 1058800100020 
NOCOMMON             0          0                                 1058800100021 
ENDSUBENT           20          0                                 1058800199999 
SUBENT        10588002   20040723                             00001058800200001 
BIB                  1          1                                 1058800200002 
REACTION   (92-U-235(N,TOT),,SIG)                                 1058800200003 
ENDBIB               1          0                                 1058800200004 
NOCOMMON             0          0                                 1058800200005 
DATA                 3        716                                 1058800200006 
EN         DATA       DATA-ERR                                    1058800200007 
MEV        B          MB                                          1058800200008 
  0.5009    7.913      158.                                       1058800200009 
  0.5021    8.360      158.                                       1058800200010 
  0.5033    7.970      151.                                       1058800200011 
  0.5045    8.238      148.                                       1058800200012 
  0.5058    8.165      146.                                       1058800200013 
  0.5070    8.156      146.                                       1058800200014 
  0.5082    8.138      147.                                       1058800200015 
  0.5095    8.407      149.                                       1058800200016 
  0.5107    8.300      146.                                       1058800200017 
  0.5120    7.988      138.                                       1058800200018 
  0.5132    8.173      139.                                       1058800200019 
  0.5145    8.040      135.                                       1058800200020 
  0.5158    8.192      139.                                       1058800200021 
  0.5171    7.783      137.                                       1058800200022 
  0.5183    8.131      140.                                       1058800200023 
  0.5196    8.416      145.                                       1058800200024 
  0.5209    7.754      142.                                       1058800200025 
  0.5222    8.105      149.                                       1058800200026 
  0.5235    8.270      155.                                       1058800200027 
  0.5248    8.001      159.                                       1058800200028 
  0.5261    7.840      171.                                       1058800200029 
  0.5274    7.721      165.                                       1058800200030 
  0.5287    8.181      160.                                       1058800200031 
  0.5301    8.127      150.                                       1058800200032 
  0.5314    7.930      142.                                       1058800200033 
  0.5327    8.207      139.                                       1058800200034 
  0.5340    8.027      133.                                       1058800200035 
  0.5354    8.110      133.                                       1058800200036 
  0.5367    7.991      133.                                       1058800200037 
  0.5381    7.967      133.                                       1058800200038 
  0.5394    8.223      130.                                       1058800200039 
  0.5408    7.945      124.                                       1058800200040 
  0.5422    8.210      128.                                       1058800200041 
  0.5435    8.069      130.                                       1058800200042 
  0.5449    7.890      128.                                       1058800200043 
  0.5463    7.939      123.                                       1058800200044 
  0.5477    8.016      121.                                       1058800200045 
  0.5491    7.728      113.                                       1058800200046 
  0.5505    8.193      119.                                       1058800200047 
  0.5519    7.922      120.                                       1058800200048 
  0.5538    8.066      117.                                       1058800200049 
  0.5547    7.837      114.                                       1058800200050 
  0.5561    7.791      116.                                       1058800200051 
  0.5576    7.800      121.                                       1058800200052 
  0.5590    8.001      119.                                       1058800200053 
  0.5604    8.074      121.                                       1058800200054 
  0.5619    7.911      121.                                       1058800200055 
  0.5633    8.034      120.                                       1058800200056 
  0.5648    8.206      121.                                       1058800200057 
  0.5662    7.863      120.                                       1058800200058 
  0.5677    7.854      121.                                       1058800200059 
  0.5692    8.045      121.                                       1058800200060 
  0.5707    7.788      120.                                       1058800200061 
  0.5721    7.834      117.                                       1058800200062 
  0.5736    7.788      115.                                       1058800200063 
  0.5751    7.680      114.                                       1058800200064 
  0.5766    7.978      113.                                       1058800200065 
  0.5781    7.879      108.                                       1058800200066 
  0.5796    8.052      106.                                       1058800200067 
  0.5812    7.881      103.                                       1058800200068 
  0.5827    7.858      104.                                       1058800200069 
  0.5842    7.869      105.                                       1058800200070 
  0.5857    7.783      109.                                       1058800200071 
  0.5873    7.893      109.                                       1058800200072 
  0.5888    7.989      107.                                       1058800200073 
  0.5904    7.786      103.                                       1058800200074 
  0.5919    7.655       99.                                       1058800200075 
  0.5951    7.822       97.                                       1058800200076 
  0.5967    7.610      102.                                       1058800200077 
  0.5982    7.854      101.                                       1058800200078 
  0.5985    7.777       98.                                       1058800200079 
  0.5998    7.868       95.                                       1058800200080 
  0.6014    7.650       92.                                       1058800200081 
  0.6030    7.766       90.                                       1058800200082 
  0.6047    7.819       88.                                       1058800200083 
  0.6063    7.918       88.                                       1058800200084 
  0.6079    7.711       88.                                       1058800200085 
  0.6095    7.830       88.                                       1058800200086 
  0.6112    7.646       92.                                       1058800200087 
  0.6128    7.803       95.                                       1058800200088 
  0.6145    7.969       96.                                       1058800200089 
  0.6161    7.858       95.                                       1058800200090 
  0.6178    7.815       94.                                       1058800200091 
  0.6194    7.568       93.                                       1058800200092 
  0.6211    7.622       94.                                       1058800200093 
  0.6228    7.714       93.                                       1058800200094 
  0.6245    7.734       92.                                       1058800200095 
  0.6262    7.603       92.                                       1058800200096 
  0.6279    7.869       92.                                       1058800200097 
  0.6296    7.670       92.                                       1058800200098 
  0.6313    7.740       93.                                       1058800200099 
  0.6330    7.695       94.                                       1058800200100 
  0.6348    7.744       97.                                       1058800200101 
  0.6365    7.595       91.                                       1058800200102 
  0.6383    7.784       90.                                       1058800200103 
  0.6400    7.509       93.                                       1058800200104 
  0.6418    7.501       92.                                       1058800200105 
  0.6436    7.585       94.                                       1058800200106 
  0.6453    7.621       99.                                       1058800200107 
  0.6471    7.578       99.                                       1058800200108 
  0.6489    7.806       99.                                       1058800200109 
  0.6507    7.778       99.                                       1058800200110 
  0.6525    7.501       95.                                       1058800200111 
  0.6543    7.495       94.                                       1058800200112 
  0.6561    7.741       92.                                       1058800200113 
  0.6580    7.666       89.                                       1058800200114 
  0.6598    7.723       86.                                       1058800200115 
  0.6616    7.486       84.                                       1058800200116 
  0.6635    7.584       84.                                       1058800200117 
  0.6654    7.489       84.                                       1058800200118 
  0.6672    7.742       85.                                       1058800200119 
  0.6691    7.551       85.                                       1058800200120 
  0.6710    7.611       83.                                       1058800200121 
  0.6729    7.565       81.                                       1058800200122 
  0.6748    7.405       81.                                       1058800200123 
  0.6767    7.527       82.                                       1058800200124 
  0.6786    7.393       80.                                       1058800200125 
  0.6805    7.374       78.                                       1058800200126 
  0.6824    7.357       79.                                       1058800200127 
  0.6844    7.481       79.                                       1058800200128 
  0.6863    7.473       78.                                       1058800200129 
  0.6883    7.461       76.                                       1058800200130 
  0.6902    7.446       76.                                       1058800200131 
  0.6922    7.509       77.                                       1058800200132 
  0.6942    7.523       78.                                       1058800200133 
  0.6962    7.581       75.                                       1058800200134 
  0.6982    7.233       75.                                       1058800200135 
  0.7002    7.331       75.                                       1058800200136 
  0.7022    7.467       75.                                       1058800200137 
  0.7042    7.470       77.                                       1058800200138 
  0.7063    7.463       78.                                       1058800200139 
  0.7083    7.261       73.                                       1058800200140 
  0.7104    7.428       74.                                       1058800200141 
  0.7124    7.460       72.                                       1058800200142 
  0.7145    7.382       75.                                       1058800200143 
  0.7166    7.359       75.                                       1058800200144 
  0.7187    7.249       78.                                       1058800200145 
  0.7208    7.390       79.                                       1058800200146 
  0.7229    7.361       74.                                       1058800200147 
  0.7250    7.428       75.                                       1058800200148 
  0.7271    7.329       72.                                       1058800200149 
  0.7292    7.311       72.                                       1058800200150 
  0.7314    7.389       71.                                       1058800200151 
  0.7335    7.321       69.                                       1058800200152 
  0.7357    7.154       69.                                       1058800200153 
  0.7379    7.235       68.                                       1058800200154 
  0.7400    7.473       67.                                       1058800200155 
  0.7422    7.362       68.                                       1058800200156 
  0.7444    7.462       69.                                       1058800200157 
  0.7466    7.262       68.                                       1058800200158 
  0.7489    7.225       68.                                       1058800200159 
  0.7511    7.338       68.                                       1058800200160 
  0.7533    7.300       71.                                       1058800200161 
  0.7556    7.310       71.                                       1058800200162 
  0.7578    7.214       69.                                       1058800200163 
  0.7601    7.418       68.                                       1058800200164 
  0.7624    7.298       69.                                       1058800200165 
  0.7647    7.255       69.                                       1058800200166 
  0.7670    7.306       65.                                       1058800200167 
  0.7693    7.372       65.                                       1058800200168 
  0.7716    7.238       67.                                       1058800200169 
  0.7739    7.269       69.                                       1058800200170 
  0.7763    7.337       69.                                       1058800200171 
  0.7786    7.187       70.                                       1058800200172 
  0.7810    7.347       72.                                       1058800200173 
  0.7834    7.239       74.                                       1058800200174 
  0.7858    7.150       77.                                       1058800200175 
  0.7882    7.080       73.                                       1058800200176 
  0.7906    7.337       70.                                       1058800200177 
  0.7930    7.250       68.                                       1058800200178 
  0.7954    7.130       67.                                       1058800200179 
  0.7978    7.139       66.                                       1058800200180 
  0.8003    7.131       65.                                       1058800200181 
  0.8028    7.130       64.                                       1058800200182 
  0.8052    7.057       63.                                       1058800200183 
  0.8077    7.112       63.                                       1058800200184 
  0.8102    7.193       64.                                       1058800200185 
  0.8127    7.212       66.                                       1058800200186 
  0.8153    7.093       65.                                       1058800200187 
  0.8178    7.171       63.                                       1058800200188 
  0.8203    7.243       63.                                       1058800200189 
  0.8229    7.191       63.                                       1058800200190 
  0.8255    7.310       63.                                       1058800200191 
  0.8280    7.061       61.                                       1058800200192 
  0.8306    7.140       60.                                       1058800200193 
  0.8332    7.179       60.                                       1058800200194 
  0.8358    7.059       58.                                       1058800200195 
  0.8385    7.184       59.                                       1058800200196 
  0.8411    7.242       59.                                       1058800200197 
  0.8438    7.176       59.                                       1058800200198 
  0.8464    6.966       60.                                       1058800200199 
  0.8491    7.159       64.                                       1058800200200 
  0.8518    7.122       59.                                       1058800200201 
  0.8545    7.038       60.                                       1058800200202 
  0.8572    6.995       60.                                       1058800200203 
  0.8600    6.886       58.                                       1058800200204 
  0.8627    7.048       58.                                       1058800200205 
  0.8655    6.989       56.                                       1058800200206 
  0.8682    7.086       56.                                       1058800200207 
  0.8719    6.986       57.                                       1058800200208 
  0.8738    7.047       57.                                       1058800200209 
  0.8766    7.087       55.                                       1058800200210 
  0.8795    6.944       54.                                       1058800200211 
  0.8823    7.018       54.                                       1058800200212 
  0.8851    7.019       54.                                       1058800200213 
  0.8880    7.047       52.                                       1058800200214 
  0.8938    6.959       51.                                       1058800200215 
  0.8967    6.943       52.                                       1058800200216 
  0.8996    7.053       51.                                       1058800200217 
  0.8999    6.948       51.                                       1058800200218 
  0.9055    6.891       50.                                       1058800200219 
  0.9085    6.994       50.                                       1058800200220 
  0.9115    6.979       50.                                       1058800200221 
  0.9144    7.022       50.                                       1058800200222 
  0.9175    6.984       51.                                       1058800200223 
  0.9205    6.862       50.                                       1058800200224 
  0.9235    6.889       51.                                       1058800200225 
  0.9266    7.002       52.                                       1058800200226 
  0.9296    6.881       52.                                       1058800200227 
  0.9327    6.888       50.                                       1058800200228 
  0.9358    6.853       48.                                       1058800200229 
  0.9389    6.846       50.                                       1058800200230 
  0.9421    6.964       52.                                       1058800200231 
  0.9452    6.935       53.                                       1058800200232 
  0.9484    6.853       52.                                       1058800200233 
  0.9516    6.858       51.                                       1058800200234 
  0.9548    6.824       51.                                       1058800200235 
  0.9580    6.914       52.                                       1058800200236 
  0.9612    6.894       52.                                       1058800200237 
  0.9644    6.806       52.                                       1058800200238 
  0.9677    6.841       55.                                       1058800200239 
  0.9710    6.983       54.                                       1058800200240 
  0.9743    6.768       55.                                       1058800200241 
  0.9776    6.796       55.                                       1058800200242 
  0.9809    6.978       56.                                       1058800200243 
  0.9843    6.761       57.                                       1058800200244 
  0.9876    6.723       56.                                       1058800200245 
  0.9910    6.835       56.                                       1058800200246 
  0.9926    7.058       51.                                       1058800200247 
  0.9944    6.910       57.                                       1058800200248 
  0.9978    6.776       58.                                       1058800200249 
  1.0012    6.941       59.                                       1058800200250 
  1.0047    6.839       59.                                       1058800200251 
  1.0081    6.726       59.                                       1058800200252 
  1.0116    6.859       59.                                       1058800200253 
  1.0137    6.863       58.                                       1058800200254 
  1.0151    6.864       59.                                       1058800200255 
  1.0222    6.768       59.                                       1058800200256 
  1.0258    6.688       58.                                       1058800200257 
  1.0293    6.781       56.                                       1058800200258 
  1.0329    6.846       55.                                       1058800200259 
  1.0365    6.768       55.                                       1058800200260 
  1.0402    6.698       57.                                       1058800200261 
  1.0438    6.766       56.                                       1058800200262 
  1.0475    6.902       53.                                       1058800200263 
  1.0512    6.765       53.                                       1058800200264 
  1.0549    6.732       51.                                       1058800200265 
  1.0586    6.734       51.                                       1058800200266 
  1.0624    6.775       50.                                       1058800200267 
  1.0661    6.745       49.                                       1058800200268 
  1.0699    6.744       48.                                       1058800200269 
  1.0737    6.821       47.                                       1058800200270 
  1.0776    6.819       47.                                       1058800200271 
  1.0814    6.803       47.                                       1058800200272 
  1.0853    6.833       49.                                       1058800200273 
  1.0892    6.729       50.                                       1058800200274 
  1.0931    6.693       49.                                       1058800200275 
  1.0970    6.741       49.                                       1058800200276 
  1.1010    6.766       50.                                       1058800200277 
  1.1050    6.758       51.                                       1058800200278 
  1.1090    6.711       54.                                       1058800200279 
  1.1130    6.846       57.                                       1058800200280 
  1.1170    6.756       55.                                       1058800200281 
  1.1211    6.689       53.                                       1058800200282 
  1.1252    6.688       51.                                       1058800200283 
  1.1293    6.765       49.                                       1058800200284 
  1.1334    6.717       49.                                       1058800200285 
  1.1376    6.618       47.                                       1058800200286 
  1.1418    6.771       48.                                       1058800200287 
  1.1460    6.669       50.                                       1058800200288 
  1.1502    6.690       50.                                       1058800200289 
  1.1544    6.689       49.                                       1058800200290 
  1.1587    6.602       50.                                       1058800200291 
  1.1630    6.626       50.                                       1058800200292 
  1.1673    6.755       50.                                       1058800200293 
  1.1717    6.681       49.                                       1058800200294 
  1.1760    6.688       49.                                       1058800200295 
  1.1804    6.683       51.                                       1058800200296 
  1.1848    6.740       48.                                       1058800200297 
  1.1893    6.761       48.                                       1058800200298 
  1.1937    6.591       47.                                       1058800200299 
  1.1982    6.700       48.                                       1058800200300 
  1.2027    6.633       49.                                       1058800200301 
  1.2073    6.671       49.                                       1058800200302 
  1.2119    6.770       49.                                       1058800200303 
  1.2165    6.755       48.                                       1058800200304 
  1.2211    6.732       50.                                       1058800200305 
  1.2257    6.564       50.                                       1058800200306 
  1.2304    6.714       52.                                       1058800200307 
  1.2351    6.720       51.                                       1058800200308 
  1.2398    6.677       50.                                       1058800200309 
  1.2446    6.735       49.                                       1058800200310 
  1.2494    6.749       52.                                       1058800200311 
  1.2542    6.574       52.                                       1058800200312 
  1.2590    6.669       52.                                       1058800200313 
  1.2639    6.759       52.                                       1058800200314 
  1.2688    6.705       51.                                       1058800200315 
  1.2737    6.670       53.                                       1058800200316 
  1.2786    6.647       52.                                       1058800200317 
  1.2836    6.619       52.                                       1058800200318 
  1.2886    6.624       55.                                       1058800200319 
  1.2937    6.637       54.                                       1058800200320 
  1.2987    6.695       55.                                       1058800200321 
  1.3038    6.709       55.                                       1058800200322 
  1.3090    6.708       55.                                       1058800200323 
  1.3141    6.625       55.                                       1058800200324 
  1.3193    6.696       55.                                       1058800200325 
  1.3245    6.735       53.                                       1058800200326 
  1.3298    6.583       52.                                       1058800200327 
  1.3351    6.771       52.                                       1058800200328 
  1.3404    6.692       54.                                       1058800200329 
  1.3457    6.730       54.                                       1058800200330 
  1.3511    6.615       52.                                       1058800200331 
  1.3565    6.678       49.                                       1058800200332 
  1.3619    6.648       47.                                       1058800200333 
  1.3674    6.711       47.                                       1058800200334 
  1.3729    6.708       49.                                       1058800200335 
  1.3785    6.695       49.                                       1058800200336 
  1.3840    6.771       50.                                       1058800200337 
  1.3896    6.730       49.                                       1058800200338 
  1.3953    6.681       50.                                       1058800200339 
  1.4010    6.803       49.                                       1058800200340 
  1.4067    6.828       48.                                       1058800200341 
  1.4124    6.695       47.                                       1058800200342 
  1.4182    6.700       47.                                       1058800200343 
  1.4240    6.791       47.                                       1058800200344 
  1.4299    6.728       48.                                       1058800200345 
  1.4358    6.736       48.                                       1058800200346 
  1.4417    6.712       47.                                       1058800200347 
  1.4477    6.821       47.                                       1058800200348 
  1.4537    6.775       45.                                       1058800200349 
  1.4597    6.773       46.                                       1058800200350 
  1.4658    6.699       46.                                       1058800200351 
  1.4719    6.768       45.                                       1058800200352 
  1.4781    6.725       44.                                       1058800200353 
  1.4842    6.762       44.                                       1058800200354 
  1.4905    6.796       44.                                       1058800200355 
  1.4967    6.718       43.                                       1058800200356 
  1.5031    6.765       44.                                       1058800200357 
  1.5094    6.729       45.                                       1058800200358 
  1.5159    6.839       45.                                       1058800200359 
  1.5222    6.733       46.                                       1058800200360 
  1.5287    6.765       46.                                       1058800200361 
  1.5352    6.718       47.                                       1058800200362 
  1.5418    6.761       46.                                       1058800200363 
  1.5484    6.832       44.                                       1058800200364 
  1.5550    6.765       45.                                       1058800200365 
  1.5617    6.871       44.                                       1058800200366 
  1.5684    6.821       44.                                       1058800200367 
  1.5752    6.821       44.                                       1058800200368 
  1.5820    6.849       45.                                       1058800200369 
  1.5888    6.854       48.                                       1058800200370 
  1.5957    6.875       49.                                       1058800200371 
  1.6027    6.762       47.                                       1058800200372 
  1.6097    6.912       46.                                       1058800200373 
  1.6167    6.891       44.                                       1058800200374 
  1.6238    6.847       44.                                       1058800200375 
  1.6309    6.797       44.                                       1058800200376 
  1.6381    6.761       44.                                       1058800200377 
  1.6453    6.947       49.                                       1058800200378 
  1.6526    6.896       47.                                       1058800200379 
  1.6599    6.815       45.                                       1058800200380 
  1.6673    6.814       45.                                       1058800200381 
  1.6747    6.831       44.                                       1058800200382 
  1.6822    6.974       45.                                       1058800200383 
  1.6897    7.000       46.                                       1058800200384 
  1.6973    6.948       46.                                       1058800200385 
  1.7049    6.939       46.                                       1058800200386 
  1.7126    6.971       46.                                       1058800200387 
  1.7203    6.897       46.                                       1058800200388 
  1.7281    6.978       47.                                       1058800200389 
  1.7359    6.828       50.                                       1058800200390 
  1.7438    6.954       50.                                       1058800200391 
  1.7517    7.015       49.                                       1058800200392 
  1.7673    6.973       48.                                       1058800200393 
  1.7759    6.990       49.                                       1058800200394 
  1.7840    7.003       48.                                       1058800200395 
  1.7923    6.950       47.                                       1058800200396 
  1.8005    6.953       46.                                       1058800200397 
  1.8089    6.977       45.                                       1058800200398 
  1.8172    7.027       45.                                       1058800200399 
  1.8257    7.102       47.                                       1058800200400 
  1.8342    7.020       46.                                       1058800200401 
  1.8423    7.099       45.                                       1058800200402 
  1.8514    7.037       46.                                       1058800200403 
  1.8601    6.985       45.                                       1058800200404 
  1.8688    7.016       45.                                       1058800200405 
  1.8776    7.137       45.                                       1058800200406 
  1.8865    7.067       46.                                       1058800200407 
  1.8954    7.058       48.                                       1058800200408 
  1.9044    7.182       48.                                       1058800200409 
  1.9135    7.166       48.                                       1058800200410 
  1.9226    7.116       48.                                       1058800200411 
  1.9318    7.107       48.                                       1058800200412 
  1.9411    7.146       47.                                       1058800200413 
  1.9502    7.195       47.                                       1058800200414 
  1.9598    7.262       45.                                       1058800200415 
  1.9692    7.190       45.                                       1058800200416 
  1.9788    7.218       45.                                       1058800200417 
  1.9884    7.147       46.                                       1058800200418 
  1.9980    7.138       47.                                       1058800200419 
  2.0078    7.200       47.                                       1058800200420 
  2.0176    7.142       47.                                       1058800200421 
  2.0275    7.194       47.                                       1058800200422 
  2.0374    7.187       48.                                       1058800200423 
  2.0475    7.297       47.                                       1058800200424 
  2.0576    7.233       47.                                       1058800200425 
  2.0677    7.276       52.                                       1058800200426 
  2.0780    7.212       51.                                       1058800200427 
  2.0883    7.213       48.                                       1058800200428 
  2.0987    7.272       48.                                       1058800200429 
  2.1092    7.260       47.                                       1058800200430 
  2.1198    7.298       47.                                       1058800200431 
  2.1304    7.241       47.                                       1058800200432 
  2.1412    7.276       47.                                       1058800200433 
  2.1520    7.237       48.                                       1058800200434 
  2.1629    7.288       48.                                       1058800200435 
  2.1738    7.353       49.                                       1058800200436 
  2.1849    7.329       48.                                       1058800200437 
  2.1960    7.361       49.                                       1058800200438 
  2.2073    7.357       49.                                       1058800200439 
  2.2186    7.383       49.                                       1058800200440 
  2.2300    7.348       48.                                       1058800200441 
  2.2415    7.262       48.                                       1058800200442 
  2.2530    7.432       48.                                       1058800200443 
  2.2647    7.384       49.                                       1058800200444 
  2.2765    7.396       49.                                       1058800200445 
  2.2883    7.463       49.                                       1058800200446 
  2.3003    7.358       50.                                       1058800200447 
  2.3123    7.341       48.                                       1058800200448 
  2.3244    7.441       49.                                       1058800200449 
  2.3367    7.458       49.                                       1058800200450 
  2.3414    7.490       48.                                       1058800200451 
  2.3490    7.422       49.                                       1058800200452 
  2.3739    7.494       49.                                       1058800200453 
  2.3865    7.560       51.                                       1058800200454 
  2.3993    7.466       52.                                       1058800200455 
  2.4121    7.611       52.                                       1058800200456 
  2.4250    7.471       52.                                       1058800200457 
  2.4381    7.463       51.                                       1058800200458 
  2.4512    7.605       51.                                       1058800200459 
  2.4644    7.472       52.                                       1058800200460 
  2.4778    7.652       54.                                       1058800200461 
  2.4913    7.678       56.                                       1058800200462 
  2.5048    7.547       56.                                       1058800200463 
  2.5185    7.514       55.                                       1058800200464 
  2.5323    7.582       55.                                       1058800200465 
  2.5462    7.640       57.                                       1058800200466 
  2.5602    7.643       58.                                       1058800200467 
  2.5744    7.638       57.                                       1058800200468 
  2.5886    7.642       56.                                       1058800200469 
  2.6030    7.608       55.                                       1058800200470 
  2.6175    7.704       55.                                       1058800200471 
  2.6321    7.671       55.                                       1058800200472 
  2.6469    7.709       56.                                       1058800200473 
  2.6617    7.697       55.                                       1058800200474 
  2.6767    7.732       55.                                       1058800200475 
  2.6919    7.788       55.                                       1058800200476 
  2.7071    7.726       55.                                       1058800200477 
  2.7225    7.861       55.                                       1058800200478 
  2.7380    7.715       55.                                       1058800200479 
  2.7536    7.737       57.                                       1058800200480 
  2.7694    7.835       59.                                       1058800200481 
  2.7853    7.676       57.                                       1058800200482 
  2.8014    7.790       57.                                       1058800200483 
  2.8176    7.755       56.                                       1058800200484 
  2.8339    7.814       57.                                       1058800200485 
  2.8504    7.814       58.                                       1058800200486 
  2.8670    7.788       59.                                       1058800200487 
  2.8838    7.886       60.                                       1058800200488 
  2.9007    7.771       61.                                       1058800200489 
  2.9177    7.817       61.                                       1058800200490 
  2.9349    7.983       63.                                       1058800200491 
  2.9523    7.768       62.                                       1058800200492 
  2.9698    7.803       59.                                       1058800200493 
  2.9875    7.917       58.                                       1058800200494 
  3.0053    7.896       59.                                       1058800200495 
  3.0233    7.847       57.                                       1058800200496 
  3.0415    7.851       57.                                       1058800200497 
  3.0698    7.836       59.                                       1058800200498 
  3.0783    7.958       59.                                       1058800200499 
  3.0970    7.816       59.                                       1058800200500 
  3.1158    7.855       60.                                       1058800200501 
  3.1348    7.995       62.                                       1058800200502 
  3.1540    7.872       60.                                       1058800200503 
  3.1733    7.805       61.                                       1058800200504 
  3.1929    8.044       65.                                       1058800200505 
  3.2126    7.900       64.                                       1058800200506 
  3.2325    7.905       65.                                       1058800200507 
  3.2526    7.983       66.                                       1058800200508 
  3.2728    7.886       65.                                       1058800200509 
  3.2933    7.989       66.                                       1058800200510 
  3.3139    7.989       66.                                       1058800200511 
  3.3346    7.836       66.                                       1058800200512 
  3.3558    7.930       67.                                       1058800200513 
  3.3771    7.999       67.                                       1058800200514 
  3.3985    7.917       66.                                       1058800200515 
  3.4202    8.051       66.                                       1058800200516 
  3.4421    7.945       67.                                       1058800200517 
  3.4641    7.877       67.                                       1058800200518 
  3.4864    8.074       69.                                       1058800200519 
  3.5089    8.003       68.                                       1058800200520 
  3.5316    7.953       68.                                       1058800200521 
  3.5546    7.893       70.                                       1058800200522 
  3.5778    7.972       69.                                       1058800200523 
  3.6012    8.030       69.                                       1058800200524 
  3.6248    8.133       68.                                       1058800200525 
  3.6486    8.094       67.                                       1058800200526 
  3.6727    7.889       67.                                       1058800200527 
  3.6971    7.863       67.                                       1058800200528 
  3.7217    7.991       67.                                       1058800200529 
  3.7465    8.052       71.                                       1058800200530 
  3.7716    8.006       69.                                       1058800200531 
  3.7969    7.970       66.                                       1058800200532 
  3.8225    7.984       65.                                       1058800200533 
  3.8483    7.958       65.                                       1058800200534 
  3.8744    7.942       64.                                       1058800200535 
  3.9008    7.814       64.                                       1058800200536 
  3.9275    8.019       64.                                       1058800200537 
  3.9544    8.017       64.                                       1058800200538 
  3.9816    7.940       64.                                       1058800200539 
  4.0091    8.039       64.                                       1058800200540 
  4.0368    8.023       63.                                       1058800200541 
  4.0649    7.952       62.                                       1058800200542 
  4.0933    7.913       62.                                       1058800200543 
  4.1219    7.860       62.                                       1058800200544 
  4.1509    7.894       64.                                       1058800200545 
  4.1801    8.054       64.                                       1058800200546 
  4.2097    7.925       62.                                       1058800200547 
  4.2396    8.007       62.                                       1058800200548 
  4.2698    7.847       61.                                       1058800200549 
  4.3003    7.965       63.                                       1058800200550 
  4.3312    7.873       63.                                       1058800200551 
  4.3624    7.910       61.                                       1058800200552 
  4.3939    7.926       60.                                       1058800200553 
  4.4258    7.910       59.                                       1058800200554 
  4.4581    7.854       58.                                       1058800200555 
  4.4906    7.862       59.                                       1058800200556 
  4.5236    7.987       60.                                       1058800200557 
  4.5569    7.849       58.                                       1058800200558 
  4.5906    7.822       58.                                       1058800200559 
  4.6246    7.737       58.                                       1058800200560 
  4.6591    7.846       57.                                       1058800200561 
  4.6939    7.897       56.                                       1058800200562 
  4.7291    7.743       55.                                       1058800200563 
  4.7647    7.771       55.                                       1058800200564 
  4.8007    7.770       56.                                       1058800200565 
  4.8372    7.736       55.                                       1058800200566 
  4.8740    7.709       54.                                       1058800200567 
  4.9113    7.707       54.                                       1058800200568 
  4.9490    7.680       54.                                       1058800200569 
  4.9871    7.690       54.                                       1058800200570 
  5.0257    7.713       55.                                       1058800200571 
  5.0647    7.642       56.                                       1058800200572 
  5.1042    7.673       58.                                       1058800200573 
  5.1442    7.579       55.                                       1058800200574 
  5.1846    7.696       54.                                       1058800200575 
  5.2255    7.541       54.                                       1058800200576 
  5.2669    7.502       54.                                       1058800200577 
  5.3088    7.502       54.                                       1058800200578 
  5.3512    7.571       54.                                       1058800200579 
  5.3941    7.516       52.                                       1058800200580 
  5.4375    7.460       51.                                       1058800200581 
  5.4815    7.419       51.                                       1058800200582 
  5.5260    7.410       51.                                       1058800200583 
  5.5710    7.348       53.                                       1058800200584 
  5.6166    7.285       53.                                       1058800200585 
  5.6627    7.366       52.                                       1058800200586 
  5.7095    7.293       50.                                       1058800200587 
  5.7568    7.266       50.                                       1058800200588 
  5.8047    7.225       50.                                       1058800200589 
  5.8532    7.210       50.                                       1058800200590 
  5.9023    7.120       51.                                       1058800200591 
  5.9520    7.178       49.                                       1058800200592 
  6.0024    7.031       49.                                       1058800200593 
  6.0534    7.098       49.                                       1058800200594 
  6.1051    7.025       48.                                       1058800200595 
  6.1574    7.029       48.                                       1058800200596 
  6.2104    6.938       48.                                       1058800200597 
  6.2642    6.942       49.                                       1058800200598 
  6.3186    6.967       48.                                       1058800200599 
  6.3737    6.988       48.                                       1058800200600 
  6.4295    6.800       47.                                       1058800200601 
  6.4861    6.889       47.                                       1058800200602 
  6.5435    6.812       47.                                       1058800200603 
  6.6016    6.833       46.                                       1058800200604 
  6.6605    6.737       46.                                       1058800200605 
  6.7201    6.713       47.                                       1058800200606 
  6.7806    6.641       46.                                       1058800200607 
  6.8419    6.682       46.                                       1058800200608 
  6.9041    6.683       46.                                       1058800200609 
  6.9671    6.655       46.                                       1058800200610 
  7.0310    6.619       46.                                       1058800200611 
  7.0957    6.615       47.                                       1058800200612 
  7.1614    6.499       48.                                       1058800200613 
  7.2280    6.546       48.                                       1058800200614 
  7.2955    6.457       49.                                       1058800200615 
  7.3640    6.396       49.                                       1058800200616 
  7.4334    6.497       49.                                       1058800200617 
  7.5039    6.488       49.                                       1058800200618 
  7.5753    6.394       49.                                       1058800200619 
  7.6478    6.412       50.                                       1058800200620 
  7.7213    6.262       51.                                       1058800200621 
  7.7959    6.392       51.                                       1058800200622 
  7.8716    6.375       51.                                       1058800200623 
  7.9484    6.226       49.                                       1058800200624 
  8.0264    6.195       49.                                       1058800200625 
  8.1054    6.338       50.                                       1058800200626 
  8.1857    6.219       50.                                       1058800200627 
  8.2672    6.141       50.                                       1058800200628 
  8.3499    6.155       50.                                       1058800200629 
  8.4339    6.115       51.                                       1058800200630 
  8.5191    6.093       52.                                       1058800200631 
  8.6056    6.055       52.                                       1058800200632 
  8.6935    6.083       53.                                       1058800200633 
  8.7827    6.045       53.                                       1058800200634 
  8.8733    6.002       54.                                       1058800200635 
  8.9654    6.008       54.                                       1058800200636 
  9.0589    5.970       55.                                       1058800200637 
  9.1538    5.888       55.                                       1058800200638 
  9.2503    5.979       56.                                       1058800200639 
  9.3483    5.893       57.                                       1058800200640 
  9.4479    5.877       58.                                       1058800200641 
  9.5491    5.831       59.                                       1058800200642 
  9.6520    5.917       60.                                       1058800200643 
  9.7565    5.841       61.                                       1058800200644 
  9.8627    5.967       61.                                       1058800200645 
  9.9707    5.959       63.                                       1058800200646 
 10.0804    5.763       63.                                       1058800200647 
 10.1921    5.804       65.                                       1058800200648 
 10.3055    5.813       65.                                       1058800200649 
 10.4209    5.878       66.                                       1058800200650 
 10.5383    5.613       66.                                       1058800200651 
 10.6576    5.776       67.                                       1058800200652 
 10.7790    5.708       63.                                       1058800200653 
 10.9025    5.887       70.                                       1058800200654 
 11.0281    5.785       71.                                       1058800200655 
 11.1560    5.715       72.                                       1058800200656 
 11.2862    5.685       73.                                       1058800200657 
 11.4186    5.908       75.                                       1058800200658 
 11.5533    5.683       76.                                       1058800200659 
 11.6905    5.788       78.                                       1058800200660 
 11.8302    5.788       78.                                       1058800200661 
 11.9724    5.778       79.                                       1058800200662 
 12.1171    5.772       80.                                       1058800200663 
 12.2646    5.789       82.                                       1058800200664 
 12.4147    5.742       84.                                       1058800200665 
 12.5677    5.669       85.                                       1058800200666 
 12.7236    5.913       86.                                       1058800200667 
 12.8822    5.803       88.                                       1058800200668 
 13.0441    6.095       90.                                       1058800200669 
 13.2089    5.643       90.                                       1058800200670 
 13.3769    5.819       91.                                       1058800200671 
 13.5482    6.039       93.                                       1058800200672 
 13.7228    5.811       95.                                       1058800200673 
 13.9009    6.025       97.                                       1058800200674 
 14.0824    5.881       99.                                       1058800200675 
 14.2675    5.740      100.                                       1058800200676 
 14.4564    5.916      102.                                       1058800200677 
 14.6491    5.846      103.                                       1058800200678 
 14.8456    5.998      104.                                       1058800200679 
 15.0463    6.057      108.                                       1058800200680 
 15.2510    5.913      109.                                       1058800200681 
 15.4599    5.892      113.                                       1058800200682 
 15.6732    6.092      114.                                       1058800200683 
 15.8910    6.145      116.                                       1058800200684 
 16.1135    6.041      117.                                       1058800200685 
 16.3406    6.088      121.                                       1058800200686 
 16.5727    5.832      122.                                       1058800200687 
 16.8097    6.268      125.                                       1058800200688 
 17.0519    6.301      129.                                       1058800200689 
 17.2994    6.271      131.                                       1058800200690 
 17.5525    6.234      135.                                       1058800200691 
 17.8111    6.318      138.                                       1058800200692 
 18.0756    6.088      141.                                       1058800200693 
 18.3461    6.013      143.                                       1058800200694 
 18.6227    6.168      147.                                       1058800200695 
 18.9057    6.556      153.                                       1058800200696 
 19.1953    5.895      154.                                       1058800200697 
 19.4918    6.834      159.                                       1058800200698 
 19.7950    6.565      167.                                       1058800200699 
 20.1056    6.469      168.                                       1058800200700 
 20.4237    6.300      174.                                       1058800200701 
 20.7494    6.197      175.                                       1058800200702 
 21.0830    6.429      184.                                       1058800200703 
 21.4249    6.232      185.                                       1058800200704 
 21.7752    6.374      194.                                       1058800200705 
 22.1342    6.334      193.                                       1058800200706 
 22.5025    6.144      205.                                       1058800200707 
 22.8800    5.875      211.                                       1058800200708 
 23.2672    6.376      224.                                       1058800200709 
 23.6644    6.279      224.                                       1058800200710 
 24.0721    5.785      234.                                       1058800200711 
 24.4905    6.136      246.                                       1058800200712 
 24.9202    6.540      258.                                       1058800200713 
 25.3613    6.240      260.                                       1058800200714 
 25.8144    5.810      261.                                       1058800200715 
 26.2799    5.870      270.                                       1058800200716 
 26.7584    6.374      298.                                       1058800200717 
 27.2502    5.513      300.                                       1058800200718 
 27.7559    6.021      334.                                       1058800200719 
 28.2759    5.693      343.                                       1058800200720 
 28.8110    5.989      359.                                       1058800200721 
 29.3617    6.481      383.                                       1058800200722 
 29.9285    5.597      393.                                       1058800200723 
 30.5122    5.612      399.                                       1058800200724 
ENDDATA            718          0                                 1058800200725 
ENDSUBENT          724          0                                 1058800299999 
ENDENTRY             2          0                                 1058899999999 
