ENTRY            10640   19980813                             00001064000000001 
SUBENT        10640001   19980813                             00001064000100001 
BIB                 13         32                                 1064000100002 
INSTITUTE  (1USAWAU)                                              1064000100003 
REFERENCE  (J,NSE,62,636,1977)                                    1064000100004 
           (J,ANS,23,492,197606)                                  1064000100005 
AUTHOR     (G.W.ECCLESTON,G.L.WOODRUFF)                           1064000100006 
TITLE      Measured Near-Equilibrium Delayed Neutron Spectra      1064000100007 
            Produced by Fast-Neutron-Induced Fission of 232Th,    1064000100008 
            233U, 235U, 238U, and 239Pu.                          1064000100009 
FACILITY   (VDGT)                                                 1064000100010 
INC-SOURCE (P-BE) 10-MeV protons on 9Be to approximate a prompt   1064000100011 
            fission neutron spectrum.                             1064000100012 
METHOD     2-second cycle consisting of a 1.0-sec irradiaiton     1064000100013 
            followed by a 0.080-sec delay and a 1.0-sec counting  1064000100014 
            period with a 0.020-sec wait.                         1064000100015 
DETECTOR   (PROPC) Proton-recoil proportional counters            1064000100016 
MONITOR    Detectors calibrated using 3He(n,p)3H reaction         1064000100017 
CORRECTION Corrected for energy-dependent detector efficiencies   1064000100018 
            and for carbon-recoil events in the methane detector. 1064000100019 
           Not corrected for finite detector size and field       1064000100020 
            effects (correction about 5%), or for possible bias   1064000100021 
            resulting from lead shield.                           1064000100022 
ERR-ANALYS (DATA-ERR) Includes counting statistics and the slope- 1064000100023 
            taking interval used to differentiate the recoil      1064000100024 
            spectra.                                              1064000100025 
           Error does not include the variance reduction realized 1064000100026 
            by the digital filter which would decrease their      1064000100027 
            magnitude by a factor of 2 to 4.                      1064000100028 
STATUS     (APRVD) Approved by author 77/1/10                     1064000100029 
HISTORY    (19761104C)                                            1064000100030 
           (19840217A) Converted to REACTION formalism            1064000100031 
           (19920429A) REFERENCE, BIB update                      1064000100032 
           (19980813A) Converted to lower case and new date       1064000100033 
                       formalism                                  1064000100034 
ENDBIB              32          0                                 1064000100035 
COMMON               1          3                                 1064000100036 
EN-DUMMY                                                          1064000100037 
MEV                                                               1064000100038 
 1.5                                                              1064000100039 
ENDCOMMON            3          0                                 1064000100040 
ENDSUBENT           39          0                                 1064000199999 
SUBENT        10640002   19980813                             00001064000200001 
BIB                  2          2                                 1064000200002 
REACTION   (90-TH-232(N,F),DL,DE,N,FST)                           1064000200003 
SAMPLE     200 g Th, 99.0% 232Th                                  1064000200004 
ENDBIB               2          0                                 1064000200005 
NOCOMMON             0          0                                 1064000200006 
DATA                 3        129                                 1064000200007 
E          DATA       DATA-ERR                                    1064000200008 
KEV        1/KEV      1/KEV                                       1064000200009 
   32.20    0.1082E+02 0.2621E+01                                 1064000200010 
   33.17    0.1360E+02 0.2666E+01                                 1064000200011 
   34.16    0.1884E+02 0.2559E+01                                 1064000200012 
   35.19    0.2697E+02 0.2598E+01                                 1064000200013 
   36.24    0.3348E+02 0.2643E+01                                 1064000200014 
   37.33    0.4079E+02 0.2543E+01                                 1064000200015 
   38.45    0.4916E+02 0.2583E+01                                 1064000200016 
   39.60    0.5454E+02 0.2621E+01                                 1064000200017 
   40.79    0.5751E+02 0.2524E+01                                 1064000200018 
   42.02    0.5774E+02 0.2431E+01                                 1064000200019 
   43.28    0.5471E+02 0.2467E+01                                 1064000200020 
   44.57    0.4938E+02 0.2382E+01                                 1064000200021 
   45.91    0.4516E+02 0.2415E+01                                 1064000200022 
   47.29    0.4227E+02 0.2332E+01                                 1064000200023 
   48.71    0.4050E+02 0.2364E+01                                 1064000200024 
   50.17    0.3979E+02 0.2392E+01                                 1064000200025 
   51.67    0.4088E+02 0.2317E+01                                 1064000200026 
   53.22    0.4306E+02 0.2352E+01                                 1064000200027 
   54.82    0.4459E+02 0.2187E+01                                 1064000200028 
   56.47    0.4444E+02 0.2222E+01                                 1064000200029 
   58.16    0.4157E+02 0.2256E+01                                 1064000200030 
   59.90    0.3779E+02 0.2193E+01                                 1064000200031 
   61.70    0.3777E+02 0.1323E+01                                 1064000200032 
   63.55    0.3952E+02 0.1320E+01                                 1064000200033 
   65.46    0.4167E+02 0.1266E+01                                 1064000200034 
   67.42    0.4420E+02 0.1265E+01                                 1064000200035 
   69.45    0.4737E+02 0.1282E+01                                 1064000200036 
   71.53    0.4980E+02 0.1281E+01                                 1064000200037 
   73.68    0.4981E+02 0.1299E+01                                 1064000200038 
   75.89    0.4768E+02 0.1229E+01                                 1064000200039 
   78.16    0.4576E+02 0.1229E+01                                 1064000200040 
   80.51    0.4355E+02 0.1181E+01                                 1064000200041 
   82.92    0.4178E+02 0.1222E+01                                 1064000200042 
   85.41    0.4093E+02 0.1178E+01                                 1064000200043 
   87.97    0.4100E+02 0.1180E+01                                 1064000200044 
   90.61    0.4105E+02 0.1178E+01                                 1064000200045 
   93.33    0.4041E+02 0.1447E+01                                 1064000200046 
   96.13    0.4081E+02 0.1464E+01                                 1064000200047 
   99.01    0.3992E+02 0.1482E+01                                 1064000200048 
  101.98    0.3889E+02 0.1398E+01                                 1064000200049 
  105.04    0.3680E+02 0.1417E+01                                 1064000200050 
  108.19    0.3431E+02 0.1336E+01                                 1064000200051 
  111.44    0.3362E+02 0.1353E+01                                 1064000200052 
  114.78    0.3390E+02 0.1280E+01                                 1064000200053 
  118.23    0.3505E+02 0.1298E+01                                 1064000200054 
  121.77    0.3647E+02 0.1312E+01                                 1064000200055 
  125.43    0.3681E+02 0.1247E+01                                 1064000200056 
  129.19    0.3638E+02 0.1260E+01                                 1064000200057 
  133.07    0.3617E+02 0.1200E+01                                 1064000200058 
  137.06    0.3606E+02 0.1211E+01                                 1064000200059 
  141.17    0.3619E+02 0.1224E+01                                 1064000200060 
  145.40    0.3547E+02 0.1166E+01                                 1064000200061 
  149.77    0.3401E+02 0.1180E+01                                 1064000200062 
  154.26    0.3216E+02 0.1126E+01                                 1064000200063 
  158.89    0.3183E+02 0.1075E+01                                 1064000200064 
  163.65    0.3233E+02 0.1083E+01                                 1064000200065 
  168.56    0.3301E+02 0.1039E+01                                 1064000200066 
  173.62    0.3271E+02 0.1050E+01                                 1064000200067 
  178.83    0.3142E+02 0.1005E+01                                 1064000200068 
  184.19    0.2990E+02 0.1014E+01                                 1064000200069 
  189.72    0.2756E+02 0.9739E+00                                 1064000200070 
  195.41    0.2617E+02 0.9822E+00                                 1064000200071 
  201.27    0.2525E+02 0.9456E+00                                 1064000200072 
  207.31    0.2381E+02 0.9540E+00                                 1064000200073 
  213.53    0.2297E+02 0.9209E+00                                 1064000200074 
  219.94    0.2311E+02 0.5031E+00                                 1064000200075 
  226.54    0.2053E+02 0.4787E+00                                 1064000200076 
  233.33    0.1978E+02 0.4964E+00                                 1064000200077 
  240.33    0.1780E+02 0.5771E+00                                 1064000200078 
  247.54    0.1750E+02 0.5400E+00                                 1064000200079 
  254.97    0.1749E+02 0.5450E+00                                 1064000200080 
  262.62    0.1731E+02 0.5133E+00                                 1064000200081 
  270.50    0.1629E+02 0.5195E+00                                 1064000200082 
  278.61    0.1461E+02 0.5258E+00                                 1064000200083 
  286.97    0.1290E+02 0.5326E+00                                 1064000200084 
  295.58    0.1168E+02 0.5029E+00                                 1064000200085 
  304.45    0.1116E+02 0.5110E+00                                 1064000200086 
  313.58    0.1100E+02 0.4852E+00                                 1064000200087 
  322.99    0.1132E+02 0.4914E+00                                 1064000200088 
  332.68    0.1188E+02 0.4678E+00                                 1064000200089 
  342.66    0.1246E+02 0.4739E+00                                 1064000200090 
  352.94    0.1265E+02 0.4505E+00                                 1064000200091 
  363.52    0.1254E+02 0.4560E+00                                 1064000200092 
  374.43    0.1209E+02 0.4345E+00                                 1064000200093 
  385.66    0.1349E+02 0.2398E+00                                 1064000200094 
  397.23    0.1359E+02 0.2407E+00                                 1064000200095 
  409.15    0.1374E+02 0.2374E+00                                 1064000200096 
  421.42    0.1373E+02 0.2385E+00                                 1064000200097 
  434.07    0.1327E+02 0.2348E+00                                 1064000200098 
  447.09    0.1263E+02 0.2309E+00                                 1064000200099 
  460.50    0.1201E+02 0.2089E+00                                 1064000200100 
  474.32    0.1167E+02 0.2095E+00                                 1064000200101 
  488.55    0.1100E+02 0.2642E+00                                 1064000200102 
  503.20    0.1072E+02 0.2621E+00                                 1064000200103 
  518.30    0.1067E+02 0.2319E+00                                 1064000200104 
  533.85    0.1052E+02 0.2611E+00                                 1064000200105 
  549.86    0.1005E+02 0.2312E+00                                 1064000200106 
  566.36    0.9221E+01 0.2293E+00                                 1064000200107 
  583.35    0.8547E+01 0.2051E+00                                 1064000200108 
  600.85    0.7837E+01 0.2038E+00                                 1064000200109 
  618.87    0.7313E+01 0.2028E+00                                 1064000200110 
  637.44    0.6993E+01 0.2021E+00                                 1064000200111 
  656.56    0.6655E+01 0.1806E+00                                 1064000200112 
  676.26    0.6429E+01 0.1801E+00                                 1064000200113 
  696.55    0.6135E+01 0.1621E+00                                 1064000200114 
  717.45    0.5914E+01 0.1616E+00                                 1064000200115 
  738.97    0.5535E+01 0.1594E+00                                 1064000200116 
  761.14    0.5266E+01 0.1443E+00                                 1064000200117 
  783.97    0.4998E+01 0.1422E+00                                 1064000200118 
  807.49    0.4799E+01 0.1296E+00                                 1064000200119 
  831.72    0.4522E+01 0.1278E+00                                 1064000200120 
  856.67    0.4222E+01 0.1260E+00                                 1064000200121 
  882.37    0.3888E+01 0.1140E+00                                 1064000200122 
  908.84    0.3661E+01 0.1125E+00                                 1064000200123 
  936.10    0.3410E+01 0.1097E+00                                 1064000200124 
  964.19    0.3221E+01 0.9971E-01                                 1064000200125 
  993.11    0.3026E+01 0.9717E-01                                 1064000200126 
 1022.91    0.2861E+01 0.8846E-01                                 1064000200127 
 1053.59    0.2701E+01 0.8603E-01                                 1064000200128 
 1085.20    0.2511E+01 0.7752E-01                                 1064000200129 
 1117.76    0.2207E+01 0.7029E-01                                 1064000200130 
 1151.29    0.1908E+01 0.6851E-01                                 1064000200131 
 1185.83    0.1623E+01 0.6576E-01                                 1064000200132 
 1221.40    0.1523E+01 0.5982E-01                                 1064000200133 
 1258.05    0.1473E+01 0.5404E-01                                 1064000200134 
 1295.79    0.1358E+01 0.5205E-01                                 1064000200135 
 1334.66    0.1183E+01 0.4702E-01                                 1064000200136 
 1374.70    0.9644E+00 0.4265E-01                                 1064000200137 
 1415.94    0.8125E+00 0.4056E-01                                 1064000200138 
ENDDATA            131          0                                 1064000200139 
ENDSUBENT          138          0                                 1064000299999 
SUBENT        10640003   19980813                             00001064000300001 
BIB                  2          4                                 1064000300002 
REACTION   (92-U-233(N,F),DL,DE,N,FST)                            1064000300003 
SAMPLE     Isotopic composition of sample: 232U (8 ppm),          1064000300004 
            233U (99.54%), 234U (0.184%), 235U (0.062%),          1064000300005 
            236U (0.013%), 238U (0.203%).                         1064000300006 
ENDBIB               4          0                                 1064000300007 
NOCOMMON             0          0                                 1064000300008 
DATA                 3        129                                 1064000300009 
E          DATA       DATA-ERR                                    1064000300010 
KEV        1/KEV      1/KEV                                       1064000300011 
   32.84    0.3181E+00 0.2059E+01                                 1064000300012 
   33.83    0.5500E+01 0.2097E+01                                 1064000300013 
   34.84    0.1338E+02 0.2132E+01                                 1064000300014 
   35.89    0.2189E+02 0.2047E+01                                 1064000300015 
   36.96    0.2988E+02 0.1971E+01                                 1064000300016 
   38.07    0.3919E+02 0.2005E+01                                 1064000300017 
   39.21    0.4385E+02 0.1935E+01                                 1064000300018 
   40.39    0.4730E+02 0.1967E+01                                 1064000300019 
   41.60    0.4775E+02 0.1997E+01                                 1064000300020 
   42.85    0.4623E+02 0.2025E+01                                 1064000300021 
   44.13    0.4375E+02 0.1949E+01                                 1064000300022 
   45.46    0.4127E+02 0.1976E+01                                 1064000300023 
   46.82    0.3963E+02 0.1907E+01                                 1064000300024 
   48.23    0.3889E+02 0.1935E+01                                 1064000300025 
   49.67    0.3927E+02 0.1872E+01                                 1064000300026 
   51.16    0.3958E+02 0.1813E+01                                 1064000300027 
   52.70    0.3931E+02 0.1840E+01                                 1064000300028 
   54.28    0.3870E+02 0.1787E+01                                 1064000300029 
   55.91    0.3789E+02 0.1814E+01                                 1064000300030 
   57.59    0.3670E+02 0.1762E+01                                 1064000300031 
   59.31    0.3542E+02 0.1789E+01                                 1064000300032 
   61.09    0.3466E+02 0.1172E+01                                 1064000300033 
   62.93    0.3537E+02 0.1189E+01                                 1064000300034 
   64.81    0.3713E+02 0.1126E+01                                 1064000300035 
   66.76    0.4001E+02 0.1141E+01                                 1064000300036 
   68.76    0.4417E+02 0.1115E+01                                 1064000300037 
   70.82    0.4838E+02 0.1130E+01                                 1064000300038 
   72.95    0.5131E+02 0.1090E+01                                 1064000300039 
   75.14    0.5232E+02 0.1087E+01                                 1064000300040 
   77.39    0.5136E+02 0.1083E+01                                 1064000300041 
   79.71    0.4823E+02 0.1031E+01                                 1064000300042 
   82.10    0.4359E+02 0.1090E+01                                 1064000300043 
   84.57    0.4033E+02 0.1021E+01                                 1064000300044 
   87.10    0.3845E+02 0.9917E+00                                 1064000300045 
   89.72    0.3595E+02 0.1031E+01                                 1064000300046 
   92.41    0.3457E+02 0.9894E+00                                 1064000300047 
   95.18    0.3361E+02 0.1375E+01                                 1064000300048 
   98.04    0.3254E+02 0.1392E+01                                 1064000300049 
  100.98    0.3314E+02 0.1314E+01                                 1064000300050 
  104.01    0.3400E+02 0.1240E+01                                 1064000300051 
  107.13    0.3422E+02 0.1258E+01                                 1064000300052 
  110.34    0.3435E+02 0.1278E+01                                 1064000300053 
  113.65    0.3381E+02 0.1211E+01                                 1064000300054 
  117.06    0.3438E+02 0.1221E+01                                 1064000300055 
  120.57    0.3609E+02 0.1238E+01                                 1064000300056 
  124.19    0.3831E+02 0.1174E+01                                 1064000300057 
  127.91    0.4018E+02 0.1188E+01                                 1064000300058 
  131.75    0.4049E+02 0.1132E+01                                 1064000300059 
  135.70    0.3937E+02 0.1142E+01                                 1064000300060 
  139.77    0.3753E+02 0.1084E+01                                 1064000300061 
  143.97    0.3607E+02 0.1095E+01                                 1064000300062 
  148.29    0.3457E+02 0.1044E+01                                 1064000300063 
  152.74    0.3373E+02 0.1056E+01                                 1064000300064 
  157.32    0.3271E+02 0.1063E+01                                 1064000300065 
  162.04    0.3223E+02 0.1017E+01                                 1064000300066 
  166.90    0.3222E+02 0.1026E+01                                 1064000300067 
  171.91    0.3185E+02 0.9339E+00                                 1064000300068 
  177.06    0.3057E+02 0.9427E+00                                 1064000300069 
  182.37    0.2916E+02 0.9049E+00                                 1064000300070 
  187.85    0.2817E+02 0.9583E+00                                 1064000300071 
  193.48    0.2681E+02 0.9208E+00                                 1064000300072 
  199.29    0.2538E+02 0.8461E+00                                 1064000300073 
  205.26    0.2438E+02 0.8544E+00                                 1064000300074 
  211.42    0.2382E+02 0.8617E+00                                 1064000300075 
  217.76    0.2370E+02 0.8307E+00                                 1064000300076 
  224.30    0.2094E+02 0.4913E+00                                 1064000300077 
  231.03    0.2040E+02 0.4644E+00                                 1064000300078 
  237.96    0.1926E+02 0.5861E+00                                 1064000300079 
  245.10    0.1885E+02 0.5898E+00                                 1064000300080 
  252.45    0.1886E+02 0.5514E+00                                 1064000300081 
  260.02    0.1865E+02 0.5562E+00                                 1064000300082 
  267.82    0.1813E+02 0.5230E+00                                 1064000300083 
  275.86    0.1727E+02 0.5273E+00                                 1064000300084 
  284.13    0.1650E+02 0.5317E+00                                 1064000300085 
  292.66    0.1563E+02 0.5000E+00                                 1064000300086 
  301.44    0.1460E+02 0.5063E+00                                 1064000300087 
  310.48    0.1312E+02 0.4787E+00                                 1064000300088 
  319.80    0.1242E+02 0.4534E+00                                 1064000300089 
  329.39    0.1097E+02 0.2438E+00                                 1064000300090 
  339.27    0.1087E+02 0.2480E+00                                 1064000300091 
  349.45    0.1030E+02 0.2461E+00                                 1064000300092 
  359.93    0.9888E+01 0.2223E+00                                 1064000300093 
  370.73    0.1009E+02 0.2207E+00                                 1064000300094 
  381.85    0.1072E+02 0.2190E+00                                 1064000300095 
  393.31    0.1108E+02 0.1995E+00                                 1064000300096 
  405.11    0.1146E+02 0.1982E+00                                 1064000300097 
  417.26    0.1145E+02 0.1995E+00                                 1064000300098 
  429.78    0.1122E+02 0.1977E+00                                 1064000300099 
  442.67    0.1070E+02 0.1989E+00                                 1064000300100 
  455.95    0.1010E+02 0.1970E+00                                 1064000300101 
  469.63    0.9499E+01 0.1775E+00                                 1064000300102 
  483.72    0.9210E+01 0.1760E+00                                 1064000300103 
  498.23    0.8915E+01 0.2403E+00                                 1064000300104 
  513.18    0.9180E+01 0.2111E+00                                 1064000300105 
  528.57    0.9500E+01 0.1871E+00                                 1064000300106 
  544.43    0.9731E+01 0.2109E+00                                 1064000300107 
  560.76    0.9657E+01 0.1867E+00                                 1064000300108 
  577.58    0.9266E+01 0.1848E+00                                 1064000300109 
  594.91    0.8786E+01 0.1650E+00                                 1064000300110 
  612.76    0.8165E+01 0.1634E+00                                 1064000300111 
  631.14    0.7565E+01 0.1618E+00                                 1064000300112 
  650.08    0.7204E+01 0.1604E+00                                 1064000300113 
  669.58    0.6823E+01 0.1425E+00                                 1064000300114 
  689.67    0.6539E+01 0.1415E+00                                 1064000300115 
  710.36    0.6100E+01 0.1267E+00                                 1064000300116 
  731.67    0.5784E+01 0.1257E+00                                 1064000300117 
  753.62    0.5352E+01 0.1231E+00                                 1064000300118 
  776.23    0.5075E+01 0.1108E+00                                 1064000300119 
  799.51    0.4768E+01 0.1086E+00                                 1064000300120 
  823.50    0.4499E+01 0.9845E-01                                 1064000300121 
  848.20    0.4140E+01 0.9648E-01                                 1064000300122 
  873.65    0.3802E+01 0.9458E-01                                 1064000300123 
  899.86    0.3445E+01 0.8514E-01                                 1064000300124 
  926.85    0.3166E+01 0.8364E-01                                 1064000300125 
  954.66    0.2810E+01 0.8123E-01                                 1064000300126 
  983.30    0.2537E+01 0.7368E-01                                 1064000300127 
 1012.80    0.2335E+01 0.7167E-01                                 1064000300128 
 1043.18    0.2217E+01 0.6524E-01                                 1064000300129 
 1074.48    0.2071E+01 0.6356E-01                                 1064000300130 
 1106.71    0.1857E+01 0.5751E-01                                 1064000300131 
 1139.92    0.1618E+01 0.5211E-01                                 1064000300132 
 1174.11    0.1429E+01 0.5094E-01                                 1064000300133 
 1209.34    0.1245E+01 0.4930E-01                                 1064000300134 
 1245.62    0.1160E+01 0.4490E-01                                 1064000300135 
 1282.98    0.1092E+01 0.4078E-01                                 1064000300136 
 1321.47    0.9838E+00 0.3966E-01                                 1064000300137 
 1361.12    0.8463E+00 0.3597E-01                                 1064000300138 
 1401.95    0.7321E+00 0.3287E-01                                 1064000300139 
 1444.01    0.6391E+00 0.3179E-01                                 1064000300140 
ENDDATA            131          0                                 1064000300141 
ENDSUBENT          140          0                                 1064000399999 
SUBENT        10640004   19980813                             00001064000400001 
BIB                  3          6                                 1064000400002 
REACTION   (92-U-235(N,F),DL,DE,N,FST)                            1064000400003 
SAMPLE     Isotopic composition of sample: 235U (93.2%),          1064000400004 
            238U (6.8%)                                           1064000400005 
CORRECTION No correction for fission from delayed neutrons        1064000400006 
            resulting from fission of 238U contained in sample    1064000400007 
            (about 4% of delayed neutrons)                        1064000400008 
ENDBIB               6          0                                 1064000400009 
NOCOMMON             0          0                                 1064000400010 
DATA                 3        129                                 1064000400011 
E          DATA       DATA-ERR                                    1064000400012 
KEV        1/KEV      1/KEV                                       1064000400013 
   32.36    0.4150E+02 0.2675E+01                                 1064000400014 
   33.33    0.4086E+02 0.2715E+01                                 1064000400015 
   34.33    0.3914E+02 0.2754E+01                                 1064000400016 
   35.36    0.3881E+02 0.2636E+01                                 1064000400017 
   36.42    0.4064E+02 0.2666E+01                                 1064000400018 
   37.52    0.4570E+02 0.2559E+01                                 1064000400019 
   38.64    0.5224E+02 0.2594E+01                                 1064000400020 
   39.80    0.5670E+02 0.2499E+01                                 1064000400021 
   40.99    0.5928E+02 0.2538E+01                                 1064000400022 
   42.22    0.5700E+02 0.2448E+01                                 1064000400023 
   43.49    0.5377E+02 0.2484E+01                                 1064000400024 
   44.80    0.4930E+02 0.2519E+01                                 1064000400025 
   46.14    0.4495E+02 0.2428E+01                                 1064000400026 
   47.52    0.4197E+02 0.2343E+01                                 1064000400027 
   48.95    0.4077E+02 0.2376E+01                                 1064000400028 
   50.42    0.4057E+02 0.2409E+01                                 1064000400029 
   51.93    0.4093E+02 0.2338E+01                                 1064000400030 
   53.49    0.4125E+02 0.2376E+01                                 1064000400031 
   55.09    0.4036E+02 0.2209E+01                                 1064000400032 
   56.75    0.3867E+02 0.2243E+01                                 1064000400033 
   58.45    0.3766E+02 0.2180E+01                                 1064000400034 
   60.20    0.3707E+02 0.1471E+01                                 1064000400035 
   62.01    0.3990E+02 0.1388E+01                                 1064000400036 
   63.87    0.4416E+02 0.1406E+01                                 1064000400037 
   65.78    0.4879E+02 0.1401E+01                                 1064000400038 
   67.76    0.5266E+02 0.1420E+01                                 1064000400039 
   69.79    0.5507E+02 0.1323E+01                                 1064000400040 
   71.88    0.5742E+02 0.1271E+01                                 1064000400041 
   74.04    0.5803E+02 0.1267E+01                                 1064000400042 
   76.26    0.5621E+02 0.1265E+01                                 1064000400043 
   78.55    0.5220E+02 0.1276E+01                                 1064000400044 
   80.91    0.4997E+02 0.1273E+01                                 1064000400045 
   83.33    0.4726E+02 0.1227E+01                                 1064000400046 
   85.83    0.4417E+02 0.1208E+01                                 1064000400047 
   88.41    0.4157E+02 0.1204E+01                                 1064000400048 
   91.06    0.4061E+02 0.1169E+01                                 1064000400049 
   93.79    0.3821E+02 0.1539E+01                                 1064000400050 
   96.61    0.3672E+02 0.1451E+01                                 1064000400051 
   99.50    0.3584E+02 0.1468E+01                                 1064000400052 
  102.49    0.3608E+02 0.1488E+01                                 1064000400053 
  105.56    0.3690E+02 0.1508E+01                                 1064000400054 
  108.73    0.3785E+02 0.1531E+01                                 1064000400055 
  111.99    0.3855E+02 0.1444E+01                                 1064000400056 
  115.35    0.3975E+02 0.1463E+01                                 1064000400057 
  118.81    0.4085E+02 0.1382E+01                                 1064000400058 
  122.38    0.4217E+02 0.1312E+01                                 1064000400059 
  126.05    0.4281E+02 0.1415E+01                                 1064000400060 
  129.83    0.4166E+02 0.1343E+01                                 1064000400061 
  133.73    0.3914E+02 0.1357E+01                                 1064000400062 
  137.74    0.3674E+02 0.1286E+01                                 1064000400063 
  141.87    0.3649E+02 0.1226E+01                                 1064000400064 
  146.13    0.3641E+02 0.1239E+01                                 1064000400065 
  150.51    0.3555E+02 0.1250E+01                                 1064000400066 
  155.02    0.3470E+02 0.1194E+01                                 1064000400067 
  159.68    0.3388E+02 0.1142E+01                                 1064000400068 
  164.47    0.3328E+02 0.1149E+01                                 1064000400069 
  169.40    0.3317E+02 0.1103E+01                                 1064000400070 
  174.48    0.3329E+02 0.1114E+01                                 1064000400071 
  179.72    0.3229E+02 0.1067E+01                                 1064000400072 
  185.11    0.2963E+02 0.1078E+01                                 1064000400073 
  190.66    0.2755E+02 0.1037E+01                                 1064000400074 
  196.38    0.2735E+02 0.9965E+00                                 1064000400075 
  202.27    0.2613E+02 0.1006E+01                                 1064000400076 
  208.34    0.2499E+02 0.1017E+01                                 1064000400077 
  214.59    0.2476E+02 0.9396E+00                                 1064000400078 
  221.03    0.2201E+02 0.5642E+00                                 1064000400079 
  227.66    0.2178E+02 0.5624E+00                                 1064000400080 
  234.49    0.2159E+02 0.5332E+00                                 1064000400081 
  241.52    0.1987E+02 0.6761E+00                                 1064000400082 
  248.77    0.1982E+02 0.6872E+00                                 1064000400083 
  256.23    0.2015E+02 0.6450E+00                                 1064000400084 
  263.92    0.2074E+02 0.6529E+00                                 1064000400085 
  271.84    0.2065E+02 0.6617E+00                                 1064000400086 
  279.99    0.1919E+02 0.6224E+00                                 1064000400087 
  288.39    0.1784E+02 0.5898E+00                                 1064000400088 
  297.04    0.1590E+02 0.5960E+00                                 1064000400089 
  305.95    0.1530E+02 0.6053E+00                                 1064000400090 
  315.13    0.1539E+02 0.5745E+00                                 1064000400091 
  324.59    0.1591E+02 0.5467E+00                                 1064000400092 
  334.32    0.1672E+02 0.5536E+00                                 1064000400093 
  344.35    0.1672E+02 0.5612E+00                                 1064000400094 
  354.69    0.1612E+02 0.5340E+00                                 1064000400095 
  365.33    0.1590E+02 0.5399E+00                                 1064000400096 
  376.29    0.1611E+02 0.5143E+00                                 1064000400097 
  387.57    0.1617E+02 0.2718E+00                                 1064000400098 
  399.20    0.1640E+02 0.2694E+00                                 1064000400099 
  411.18    0.1625E+02 0.2714E+00                                 1064000400100 
  423.51    0.1591E+02 0.2736E+00                                 1064000400101 
  436.22    0.1548E+02 0.2706E+00                                 1064000400102 
  449.30    0.1509E+02 0.2673E+00                                 1064000400103 
  462.78    0.1467E+02 0.2425E+00                                 1064000400104 
  476.67    0.1440E+02 0.2441E+00                                 1064000400105 
  490.97    0.1430E+02 0.3022E+00                                 1064000400106 
  505.70    0.1432E+02 0.3007E+00                                 1064000400107 
  520.87    0.1450E+02 0.2665E+00                                 1064000400108 
  536.49    0.1455E+02 0.3004E+00                                 1064000400109 
  552.59    0.1421E+02 0.2661E+00                                 1064000400110 
  569.17    0.1347E+02 0.2639E+00                                 1064000400111 
  586.24    0.1280E+02 0.2359E+00                                 1064000400112 
  603.83    0.1206E+02 0.2339E+00                                 1064000400113 
  621.94    0.1141E+02 0.2321E+00                                 1064000400114 
  640.60    0.1096E+02 0.2305E+00                                 1064000400115 
  659.82    0.1016E+02 0.2054E+00                                 1064000400116 
  679.61    0.9442E+01 0.2044E+00                                 1064000400117 
  700.00    0.8572E+01 0.1836E+00                                 1064000400118 
  721.00    0.8075E+01 0.1828E+00                                 1064000400119 
  742.63    0.7576E+01 0.1801E+00                                 1064000400120 
  764.91    0.7308E+01 0.1631E+00                                 1064000400121 
  787.86    0.6974E+01 0.1608E+00                                 1064000400122 
  811.49    0.6649E+01 0.1465E+00                                 1064000400123 
  835.84    0.6188E+01 0.1444E+00                                 1064000400124 
  860.91    0.5754E+01 0.1424E+00                                 1064000400125 
  886.74    0.5310E+01 0.1290E+00                                 1064000400126 
  913.34    0.4952E+01 0.1274E+00                                 1064000400127 
  940.74    0.4429E+01 0.1246E+00                                 1064000400128 
  968.97    0.3987E+01 0.1138E+00                                 1064000400129 
  998.03    0.3652E+01 0.1115E+00                                 1064000400130 
 1027.98    0.3483E+01 0.1022E+00                                 1064000400131 
 1058.82    0.3306E+01 0.1004E+00                                 1064000400132 
 1090.58    0.3035E+01 0.9169E-01                                 1064000400133 
 1123.30    0.2667E+01 0.8401E-01                                 1064000400134 
 1157.00    0.2381E+01 0.8278E-01                                 1064000400135 
 1191.71    0.2165E+01 0.8074E-01                                 1064000400136 
 1227.46    0.2052E+01 0.7444E-01                                 1064000400137 
 1264.28    0.1906E+01 0.6840E-01                                 1064000400138 
 1302.21    0.1751E+01 0.6682E-01                                 1064000400139 
 1341.28    0.1608E+01 0.6142E-01                                 1064000400140 
 1381.51    0.1440E+01 0.5683E-01                                 1064000400141 
 1422.96    0.1217E+01 0.5541E-01                                 1064000400142 
ENDDATA            131          0                                 1064000400143 
ENDSUBENT          142          0                                 1064000499999 
SUBENT        10640005   19980813                             00001064000500001 
BIB                  2          2                                 1064000500002 
REACTION   (92-U-238(N,F),DL,DE,N,FST)                            1064000500003 
SAMPLE     235U depleted metal, 0.2% 235U.                        1064000500004 
ENDBIB               2          0                                 1064000500005 
NOCOMMON             0          0                                 1064000500006 
DATA                 3        129                                 1064000500007 
E          DATA       DATA-ERR                                    1064000500008 
KEV        1/KEV      1/KEV                                       1064000500009 
   32.31    0.1124E+03 0.6106E+01                                 1064000500010 
   33.28    0.1305E+03 0.6198E+01                                 1064000500011 
   34.28    0.1474E+03 0.5950E+01                                 1064000500012 
   35.30    0.1615E+03 0.6053E+01                                 1064000500013 
   36.36    0.1802E+03 0.6148E+01                                 1064000500014 
   37.45    0.1936E+03 0.5913E+01                                 1064000500015 
   38.58    0.2040E+03 0.5998E+01                                 1064000500016 
   39.73    0.2108E+03 0.5775E+01                                 1064000500017 
   40.93    0.2136E+03 0.5858E+01                                 1064000500018 
   42.15    0.2108E+03 0.5643E+01                                 1064000500019 
   43.42    0.2089E+03 0.5729E+01                                 1064000500020 
   44.72    0.2014E+03 0.5532E+01                                 1064000500021 
   46.06    0.1945E+03 0.5617E+01                                 1064000500022 
   47.45    0.1837E+03 0.5432E+01                                 1064000500023 
   48.87    0.1745E+03 0.5263E+01                                 1064000500024 
   50.33    0.1673E+03 0.5593E+01                                 1064000500025 
   51.85    0.1640E+03 0.5424E+01                                 1064000500026 
   53.40    0.1628E+03 0.5262E+01                                 1064000500027 
   55.00    0.1654E+03 0.5120E+01                                 1064000500028 
   56.65    0.1679E+03 0.5198E+01                                 1064000500029 
   58.35    0.1716E+03 0.5056E+01                                 1064000500030 
   60.10    0.1761E+03 0.5137E+01                                 1064000500031 
   61.91    0.1803E+03 0.3977E+01                                 1064000500032 
   63.76    0.1883E+03 0.4032E+01                                 1064000500033 
   65.68    0.1978E+03 0.3986E+01                                 1064000500034 
   67.65    0.2117E+03 0.3906E+01                                 1064000500035 
   69.68    0.2288E+03 0.3768E+01                                 1064000500036 
   71.77    0.2406E+03 0.3818E+01                                 1064000500037 
   73.92    0.2421E+03 0.3660E+01                                 1064000500038 
   76.14    0.2382E+03 0.3625E+01                                 1064000500039 
   78.42    0.2313E+03 0.3668E+01                                 1064000500040 
   80.77    0.2197E+03 0.3623E+01                                 1064000500041 
   83.20    0.2075E+03 0.3665E+01                                 1064000500042 
   85.69    0.2015E+03 0.3523E+01                                 1064000500043 
   88.26    0.1989E+03 0.3489E+01                                 1064000500044 
   90.91    0.1951E+03 0.3365E+01                                 1064000500045 
   93.64    0.1853E+03 0.6019E+01                                 1064000500046 
   96.45    0.1801E+03 0.5649E+01                                 1064000500047 
   99.34    0.1743E+03 0.5714E+01                                 1064000500048 
  102.32    0.1742E+03 0.5364E+01                                 1064000500049 
  105.39    0.1774E+03 0.5075E+01                                 1064000500050 
  108.55    0.1786E+03 0.5141E+01                                 1064000500051 
  111.81    0.1780E+03 0.4865E+01                                 1064000500052 
  115.16    0.1756E+03 0.5260E+01                                 1064000500053 
  118.62    0.1720E+03 0.4974E+01                                 1064000500054 
  122.18    0.1722E+03 0.5039E+01                                 1064000500055 
  125.84    0.1756E+03 0.5081E+01                                 1064000500056 
  129.62    0.1804E+03 0.4820E+01                                 1064000500057 
  133.51    0.1822E+03 0.4870E+01                                 1064000500058 
  137.51    0.1783E+03 0.4640E+01                                 1064000500059 
  141.64    0.1667E+03 0.4412E+01                                 1064000500060 
  145.88    0.1564E+03 0.4456E+01                                 1064000500061 
  150.26    0.1493E+03 0.4247E+01                                 1064000500062 
  154.77    0.1478E+03 0.4535E+01                                 1064000500063 
  159.41    0.1505E+03 0.4329E+01                                 1064000500064 
  164.19    0.1504E+03 0.4145E+01                                 1064000500065 
  169.12    0.1493E+03 0.4181E+01                                 1064000500066 
  174.19    0.1455E+03 0.3992E+01                                 1064000500067 
  179.42    0.1389E+03 0.4032E+01                                 1064000500068 
  184.80    0.1301E+03 0.3866E+01                                 1064000500069 
  190.35    0.1246E+03 0.3713E+01                                 1064000500070 
  196.06    0.1190E+03 0.3571E+01                                 1064000500071 
  201.94    0.1155E+03 0.3603E+01                                 1064000500072 
  208.00    0.1154E+03 0.3480E+01                                 1064000500073 
  214.24    0.1112E+03 0.3355E+01                                 1064000500074 
  220.66    0.9344E+02 0.2172E+01                                 1064000500075 
  227.28    0.8783E+02 0.2055E+01                                 1064000500076 
  234.10    0.8707E+02 0.2175E+01                                 1064000500077 
  241.13    0.7687E+02 0.2699E+01                                 1064000500078 
  248.36    0.7943E+02 0.2528E+01                                 1064000500079 
  255.81    0.8208E+02 0.2553E+01                                 1064000500080 
  263.48    0.8197E+02 0.2404E+01                                 1064000500081 
  271.39    0.7769E+02 0.2431E+01                                 1064000500082 
  279.53    0.6998E+02 0.2458E+01                                 1064000500083 
  287.92    0.6242E+02 0.2315E+01                                 1064000500084 
  296.55    0.6012E+02 0.2343E+01                                 1064000500085 
  305.45    0.6127E+02 0.2216E+01                                 1064000500086 
  314.61    0.6183E+02 0.2107E+01                                 1064000500087 
  324.05    0.6083E+02 0.2131E+01                                 1064000500088 
  333.77    0.6026E+02 0.2149E+01                                 1064000500089 
  343.79    0.6306E+02 0.2041E+01                                 1064000500090 
  354.10    0.6687E+02 0.2060E+01                                 1064000500091 
  364.72    0.6810E+02 0.1957E+01                                 1064000500092 
  375.67    0.6664E+02 0.1859E+01                                 1064000500093 
  386.94    0.5154E+02 0.5348E+00                                 1064000500094 
  398.54    0.5324E+02 0.5366E+00                                 1064000500095 
  410.50    0.5454E+02 0.5377E+00                                 1064000500096 
  422.82    0.5510E+02 0.5410E+00                                 1064000500097 
  435.50    0.5493E+02 0.5412E+00                                 1064000500098 
  448.57    0.5405E+02 0.5410E+00                                 1064000500099 
  462.02    0.5226E+02 0.4783E+00                                 1064000500100 
  475.88    0.5133E+02 0.4803E+00                                 1064000500101 
  490.16    0.5101E+02 0.5077E+00                                 1064000500102 
  504.86    0.5006E+02 0.5032E+00                                 1064000500103 
  520.01    0.4974E+02 0.4448E+00                                 1064000500104 
  535.61    0.4901E+02 0.4999E+00                                 1064000500105 
  551.68    0.4727E+02 0.4418E+00                                 1064000500106 
  568.23    0.4435E+02 0.4369E+00                                 1064000500107 
  585.28    0.4201E+02 0.3896E+00                                 1064000500108 
  602.83    0.3930E+02 0.3856E+00                                 1064000500109 
  620.92    0.3673E+02 0.3819E+00                                 1064000500110 
  639.55    0.3453E+02 0.3786E+00                                 1064000500111 
  658.73    0.3162E+02 0.3368E+00                                 1064000500112 
  678.50    0.2939E+02 0.3345E+00                                 1064000500113 
  698.85    0.2700E+02 0.3001E+00                                 1064000500114 
  719.82    0.2558E+02 0.2984E+00                                 1064000500115 
  741.41    0.2391E+02 0.2935E+00                                 1064000500116 
  763.65    0.2281E+02 0.2653E+00                                 1064000500117 
  786.56    0.2161E+02 0.2610E+00                                 1064000500118 
  810.16    0.2064E+02 0.2373E+00                                 1064000500119 
  834.46    0.1926E+02 0.2335E+00                                 1064000500120 
  859.50    0.1781E+02 0.2298E+00                                 1064000500121 
  885.28    0.1619E+02 0.2076E+00                                 1064000500122 
  911.84    0.1494E+02 0.2047E+00                                 1064000500123 
  939.20    0.1346E+02 0.1997E+00                                 1064000500124 
  967.37    0.1253E+02 0.1815E+00                                 1064000500125 
  996.39    0.1190E+02 0.1770E+00                                 1064000500126 
 1026.29    0.1144E+02 0.1615E+00                                 1064000500127 
 1057.07    0.1084E+02 0.1573E+00                                 1064000500128 
 1088.79    0.1006E+02 0.1419E+00                                 1064000500129 
 1121.45    0.9038E+01 0.1285E+00                                 1064000500130 
 1155.09    0.8056E+01 0.1251E+00                                 1064000500131 
 1189.75    0.6979E+01 0.1201E+00                                 1064000500132 
 1225.44    0.6308E+01 0.1092E+00                                 1064000500133 
 1262.20    0.5743E+01 0.9856E-01                                 1064000500134 
 1300.07    0.5271E+01 0.9483E-01                                 1064000500135 
 1339.07    0.4733E+01 0.8579E-01                                 1064000500136 
 1379.24    0.4113E+01 0.7777E-01                                 1064000500137 
 1420.62    0.3453E+01 0.7409E-01                                 1064000500138 
ENDDATA            131          0                                 1064000500139 
ENDSUBENT          138          0                                 1064000599999 
SUBENT        10640006   19980813                             00001064000600001 
BIB                  2          4                                 1064000600002 
REACTION   (94-PU-239(N,F),DL,DE,N,FST)                           1064000600003 
SAMPLE     Isotopic composition of sample: 238Pu (0.021%),        1064000600004 
            239Pu (93.293%), 240Pu (6.117%), 241Pu (0.547%),      1064000600005 
            242Pu (0.022%)                                        1064000600006 
ENDBIB               4          0                                 1064000600007 
NOCOMMON             0          0                                 1064000600008 
DATA                 3        129                                 1064000600009 
E          DATA       DATA-ERR                                    1064000600010 
KEV        1/KEV      1/KEV                                       1064000600011 
   32.26    0.2886E+02 0.2515E+01                                 1064000600012 
   33.22    0.3017E+02 0.2413E+01                                 1064000600013 
   34.22    0.3066E+02 0.2591E+01                                 1064000600014 
   35.25    0.3305E+02 0.2483E+01                                 1064000600015 
   36.30    0.3576E+02 0.2385E+01                                 1064000600016 
   37.39    0.4001E+02 0.2420E+01                                 1064000600017 
   38.51    0.4326E+02 0.2333E+01                                 1064000600018 
   39.67    0.4676E+02 0.2368E+01                                 1064000600019 
   40.86    0.4856E+02 0.2404E+01                                 1064000600020 
   42.09    0.4862E+02 0.2320E+01                                 1064000600021 
   43.35    0.4658E+02 0.2238E+01                                 1064000600022 
   44.65    0.4458E+02 0.2271E+01                                 1064000600023 
   45.99    0.4208E+02 0.2196E+01                                 1064000600024 
   47.37    0.3999E+02 0.2335E+01                                 1064000600025 
   48.79    0.3797E+02 0.2259E+01                                 1064000600026 
   50.25    0.3576E+02 0.2190E+01                                 1064000600027 
   51.76    0.3427E+02 0.2222E+01                                 1064000600028 
   53.31    0.3462E+02 0.2158E+01                                 1064000600029 
   54.91    0.3535E+02 0.2190E+01                                 1064000600030 
   56.56    0.3526E+02 0.2129E+01                                 1064000600031 
   58.26    0.3469E+02 0.2164E+01                                 1064000600032 
   60.00    0.3527E+02 0.2107E+01                                 1064000600033 
   61.80    0.3511E+02 0.1351E+01                                 1064000600034 
   63.66    0.3891E+02 0.1346E+01                                 1064000600035 
   65.57    0.4215E+02 0.1273E+01                                 1064000600036 
   67.53    0.4679E+02 0.1270E+01                                 1064000600037 
   69.56    0.5183E+02 0.1287E+01                                 1064000600038 
   71.65    0.5518E+02 0.1304E+01                                 1064000600039 
   73.80    0.5530E+02 0.1233E+01                                 1064000600040 
   76.01    0.5345E+02 0.1231E+01                                 1064000600041 
   78.29    0.5057E+02 0.1229E+01                                 1064000600042 
   80.64    0.4636E+02 0.1168E+01                                 1064000600043 
   83.06    0.4158E+02 0.1218E+01                                 1064000600044 
   85.55    0.3846E+02 0.1178E+01                                 1064000600045 
   88.12    0.3697E+02 0.1124E+01                                 1064000600046 
   90.76    0.3647E+02 0.1175E+01                                 1064000600047 
   93.48    0.3766E+02 0.1490E+01                                 1064000600048 
   96.29    0.3794E+02 0.1510E+01                                 1064000600049 
   99.18    0.3599E+02 0.1533E+01                                 1064000600050 
  102.15    0.3405E+02 0.1448E+01                                 1064000600051 
  105.22    0.3216E+02 0.1365E+01                                 1064000600052 
  108.37    0.3207E+02 0.1382E+01                                 1064000600053 
  111.62    0.3437E+02 0.1400E+01                                 1064000600054 
  114.97    0.3736E+02 0.1326E+01                                 1064000600055 
  118.42    0.3990E+02 0.1437E+01                                 1064000600056 
  121.98    0.4056E+02 0.1362E+01                                 1064000600057 
  125.63    0.4028E+02 0.1291E+01                                 1064000600058 
  129.40    0.3960E+02 0.1301E+01                                 1064000600059 
  133.29    0.3911E+02 0.1239E+01                                 1064000600060 
  137.28    0.3792E+02 0.1252E+01                                 1064000600061 
  141.40    0.3566E+02 0.1192E+01                                 1064000600062 
  145.64    0.3351E+02 0.1205E+01                                 1064000600063 
  150.01    0.3208E+02 0.1149E+01                                 1064000600064 
  154.51    0.3186E+02 0.1163E+01                                 1064000600065 
  159.15    0.3164E+02 0.1174E+01                                 1064000600066 
  163.92    0.3132E+02 0.1125E+01                                 1064000600067 
  168.84    0.3043E+02 0.1136E+01                                 1064000600068 
  173.91    0.2866E+02 0.1092E+01                                 1064000600069 
  179.13    0.2749E+02 0.1048E+01                                 1064000600070 
  184.50    0.2778E+02 0.1006E+01                                 1064000600071 
  190.03    0.2827E+02 0.1066E+01                                 1064000600072 
  195.73    0.2852E+02 0.1027E+01                                 1064000600073 
  201.61    0.2731E+02 0.9920E+00                                 1064000600074 
  207.66    0.2430E+02 0.9552E+00                                 1064000600075 
  213.88    0.2194E+02 0.9648E+00                                 1064000600076 
  220.30    0.2047E+02 0.6178E+00                                 1064000600077 
  226.91    0.2143E+02 0.6134E+00                                 1064000600078 
  233.72    0.2214E+02 0.5822E+00                                 1064000600079 
  240.73    0.2040E+02 0.7899E+00                                 1064000600080 
  247.95    0.1972E+02 0.8008E+00                                 1064000600081 
  255.39    0.1881E+02 0.7504E+00                                 1064000600082 
  263.05    0.1771E+02 0.7584E+00                                 1064000600083 
  270.94    0.1661E+02 0.7677E+00                                 1064000600084 
  279.07    0.1509E+02 0.6748E+00                                 1064000600085 
  287.44    0.1324E+02 0.6851E+00                                 1064000600086 
  296.07    0.1170E+02 0.6962E+00                                 1064000600087 
  304.95    0.1164E+02 0.7039E+00                                 1064000600088 
  314.10    0.1331E+02 0.6669E+00                                 1064000600089 
  323.52    0.1479E+02 0.6355E+00                                 1064000600090 
  333.23    0.1533E+02 0.6442E+00                                 1064000600091 
  343.22    0.1557E+02 0.6122E+00                                 1064000600092 
  353.52    0.1596E+02 0.6167E+00                                 1064000600093 
  364.12    0.1661E+02 0.5861E+00                                 1064000600094 
  375.05    0.1702E+02 0.5915E+00                                 1064000600095 
  386.30    0.1414E+02 0.2809E+00                                 1064000600096 
  397.89    0.1441E+02 0.2791E+00                                 1064000600097 
  409.83    0.1446E+02 0.2808E+00                                 1064000600098 
  422.12    0.1427E+02 0.2743E+00                                 1064000600099 
  434.78    0.1374E+02 0.2758E+00                                 1064000600100 
  447.83    0.1313E+02 0.2729E+00                                 1064000600101 
  461.26    0.1234E+02 0.2487E+00                                 1064000600102 
  475.10    0.1210E+02 0.2467E+00                                 1064000600103 
  489.35    0.1187E+02 0.2936E+00                                 1064000600104 
  504.03    0.1203E+02 0.2918E+00                                 1064000600105 
  519.15    0.1228E+02 0.2585E+00                                 1064000600106 
  534.73    0.1237E+02 0.2911E+00                                 1064000600107 
  550.77    0.1207E+02 0.2575E+00                                 1064000600108 
  567.29    0.1139E+02 0.2550E+00                                 1064000600109 
  584.31    0.1082E+02 0.2275E+00                                 1064000600110 
  601.84    0.1018E+02 0.2252E+00                                 1064000600111 
  619.90    0.9577E+01 0.2231E+00                                 1064000600112 
  638.49    0.9062E+01 0.2213E+00                                 1064000600113 
  657.65    0.8342E+01 0.1968E+00                                 1064000600114 
  677.38    0.7785E+01 0.1955E+00                                 1064000600115 
  697.70    0.7136E+01 0.1754E+00                                 1064000600116 
  718.63    0.6711E+01 0.1744E+00                                 1064000600117 
  740.19    0.6224E+01 0.1715E+00                                 1064000600118 
  762.40    0.5990E+01 0.1549E+00                                 1064000600119 
  785.27    0.5713E+01 0.1525E+00                                 1064000600120 
  808.83    0.5398E+01 0.1387E+00                                 1064000600121 
  833.09    0.4975E+01 0.1364E+00                                 1064000600122 
  858.08    0.4658E+01 0.1341E+00                                 1064000600123 
  883.83    0.4439E+01 0.1210E+00                                 1064000600124 
  910.34    0.4249E+01 0.1190E+00                                 1064000600125 
  937.65    0.3796E+01 0.1158E+00                                 1064000600126 
  965.78    0.3320E+01 0.1052E+00                                 1064000600127 
  994.75    0.2915E+01 0.1024E+00                                 1064000600128 
 1024.60    0.2740E+01 0.9341E-01                                 1064000600129 
 1055.33    0.2648E+01 0.9122E-01                                 1064000600130 
 1086.99    0.2500E+01 0.8267E-01                                 1064000600131 
 1119.60    0.2271E+01 0.7506E-01                                 1064000600132 
 1153.19    0.2046E+01 0.7320E-01                                 1064000600133 
 1187.79    0.1797E+01 0.7057E-01                                 1064000600134 
 1223.42    0.1654E+01 0.6418E-01                                 1064000600135 
 1260.12    0.1513E+01 0.5799E-01                                 1064000600136 
 1297.93    0.1350E+01 0.5614E-01                                 1064000600137 
 1336.87    0.1142E+01 0.5095E-01                                 1064000600138 
 1376.97    0.9283E+00 0.4659E-01                                 1064000600139 
 1418.28    0.8261E+00 0.4474E-01                                 1064000600140 
ENDDATA            131          0                                 1064000600141 
ENDSUBENT          140          0                                 1064000699999 
ENDENTRY             6          0                                 1064099999999 
