ENTRY            10682   20141003                             14041068200000001 
SUBENT        10682001   20141003                             14041068200100001 
BIB                 15         40                                 1068200100002 
TITLE      High-Resolution Fast-Neutron Gamma-Ray Production Cross1068200100003 
            Sections for Iron up to 2100-keV                      1068200100004 
AUTHOR     (W.E.Kinney,F.G.Perey)                                 1068200100005 
REFERENCE  (J,NSE,63,418,197708)                                  1068200100006 
INSTITUTE  (1USAORL)                                              1068200100007 
FACILITY   (LINAC,1USAORL) ORELA.                                 1068200100008 
INC-SOURCE (EVAP) Electrons on tantalum to provide white neutron  1068200100009 
           source.                                                1068200100010 
SAMPLE     Four iron samples, all cylindrical and all 6.35 cm     1068200100011 
           high, were used for the measurements.                  1068200100012 
PART-DET   (G,N)                                                  1068200100013 
DETECTOR   (SCIN) Three NE213 liquid scintillators, 5.08-cm       1068200100014 
           diameter by 10.16-cm high, in stainless steel cans.    1068200100015 
           Axis of scintillators placed parallel to scattering    1068200100016 
           sample axis. NE110 scintillator used to obtain         1068200100017 
           reference signal from gamma flash for time of flight   1068200100018 
           measurements.                                          1068200100019 
METHOD     (TOF) Time of flight. Shadow bar used to reduce        1068200100020 
           neutron source gamma flash. Filters of depleted        1068200100021 
           uranium and 10B used to prevent overlap. Collimators   1068200100022 
           placed in beam path at 20 and 40-meters with           1068200100023 
           alignment checked by exposing film to gamma-ray        1068200100024 
           field.                                                 1068200100025 
CORRECTION Data corrected for dead time, multiple scattering of   1068200100026 
           neutrons and gammas, and background.                   1068200100027 
MONITOR    (3-LI-7(N,INL)3-LI-7,PAR,DA,G) Taken from ENDF/B-IV.   1068200100028 
           Carbon sample used to estimate backgrounds.            1068200100029 
           Calibrated sources of 54Mn, 137Cs, 27Na, and 60Co      1068200100030 
           used to adjust detector-amplifier gain.                1068200100031 
ERR-ANALYS (DATA-ERR) In addition to statistical uncertainties,   1068200100032 
           errors are due to overall uncertainty in iron-lithium  1068200100033 
           measurement of about 7-percent. This uncertainty is    1068200100034 
           due to equal contributions from neutron multiple       1068200100035 
           scattering, gamma efficiency ratios, and               1068200100036 
           internormalization of runs.                            1068200100037 
STATUS     (APRVD) Approved by F.G.Perey, 1980/10/10.             1068200100038 
HISTORY    (19800825C)                                            1068200100039 
           (20080925A) formats updated; BIB updates.              1068200100040 
           (20141003A) BP: Corrected data entry,                  1068200100041 
                      digitized Figs. 2-8.                        1068200100042 
ENDBIB              40          0                                 1068200100043 
COMMON               2          3                                 1068200100044 
E-NRM      EN-RSL                                                 1068200100045 
KEV        NSEC/M                                                 1068200100046 
    477.        0.1                                               1068200100047 
ENDCOMMON            3          0                                 1068200100048 
ENDSUBENT           47          0                                 1068200199999 
SUBENT        10682002   20141003                             14041068200200001 
BIB                  3          5                                 1068200200002 
REACTION   (26-FE-0(N,INL)26-FE-0,PAR,DA,G)                       1068200200003 
STATUS     (CURVE) Figs. 2-3, page 424.                           1068200200004 
            Continuous curves, points for digitization were       1068200200005 
            determined by compiler.                               1068200200006 
HISTORY    (20141020A) BP: Reaction corrected, data added.        1068200200007 
ENDBIB               5          0                                 1068200200008 
COMMON               2          3                                 1068200200009 
ANG        E                                                      1068200200010 
ADEG       KEV                                                    1068200200011 
      125.0   846.                                                1068200200012 
ENDCOMMON            3          0                                 1068200200013 
DATA                 2        650                                 1068200200014 
EN         DATA                                                   1068200200015 
KEV        MB/SR                                                  1068200200016 
    851.297  1.269E+00                                            1068200200017 
    858.304  1.269E+00                                            1068200200018 
    860.418  1.754E+00                                            1068200200019 
    861.439  2.721E+00                                            1068200200020 
    861.466  2.199E+00                                            1068200200021 
    862.484  3.501E+00                                            1068200200022 
    862.994  4.362E+00                                            1068200200023 
    864.553  6.812E+00                                            1068200200024 
    866.141  8.541E+00                                            1068200200025 
    866.650  1.077E+01                                            1068200200026 
    868.239  1.333E+01                                            1068200200027 
    868.743  1.749E+01                                            1068200200028 
    869.238  2.448E+01                                            1068200200029 
    870.257  3.848E+01                                            1068200200030 
    870.768  4.793E+01                                            1068200200031 
    870.826  3.069E+01                                            1068200200032 
    872.891  6.167E+01                                            1068200200033 
    875.107  3.873E+01                                            1068200200034 
    876.255  2.251E+01                                            1068200200035 
    876.311  1.469E+01                                            1068200200036 
    879.048  1.057E+01                                            1068200200037 
    880.164  7.906E+00                                            1068200200038 
    882.910  5.331E+00                                            1068200200039 
    883.326  1.369E+01                                            1068200200040 
    884.375  1.716E+01                                            1068200200041 
    885.517  1.050E+01                                            1068200200042 
    888.640  2.465E+01                                            1068200200043 
    888.685  1.739E+01                                            1068200200044 
    888.714  1.387E+01                                            1068200200045 
    890.798  2.417E+01                                            1068200200046 
    891.918  1.750E+01                                            1068200200047 
    892.554  8.273E+00                                            1068200200048 
    893.214  3.263E+00                                            1068200200049 
    893.311  1.542E+00                                            1068200200050 
    896.985  3.284E+00                                            1068200200051 
    899.010  9.058E+00                                            1068200200052 
    899.614  5.472E+00                                            1068200200053 
    900.046  1.251E+01                                            1068200200054 
    901.052  2.166E+01                                            1068200200055 
    902.627  2.993E+01                                            1068200200056 
    904.286  2.167E+01                                            1068200200057 
    904.870  1.528E+01                                            1068200200058 
    905.469  9.663E+00                                            1068200200059 
    906.060  6.474E+00                                            1068200200060 
    908.806  4.337E+00                                            1068200200061 
    910.912  6.391E+00                                            1068200200062 
    912.485  9.002E+00                                            1068200200063 
    913.510  1.352E+01                                            1068200200064 
    915.614  2.005E+01                                            1068200200065 
    917.816  1.406E+01                                            1068200200066 
    918.510  4.255E+00                                            1068200200067 
    918.956  8.716E+00                                            1068200200068 
    921.855  1.813E+00                                            1068200200069 
    922.817  4.423E+00                                            1068200200070 
    923.277  8.119E+00                                            1068200200071 
    924.814  1.500E+01                                            1068200200072 
    926.382  2.196E+01                                            1068200200073 
    927.503  1.569E+01                                            1068200200074 
    930.238  1.151E+01                                            1068200200075 
    931.156  3.953E+01                                            1068200200076 
    931.643  5.901E+01                                            1068200200077 
    931.784  1.993E+01                                            1068200200078 
    934.294  8.311E+01                                            1068200200079 
    936.485  6.295E+01                                            1068200200080 
    936.542  4.083E+01                                            1068200200081 
    937.684  2.483E+01                                            1068200200082 
    938.306  1.310E+01                                            1068200200083 
    938.918  7.467E+00                                            1068200200084 
    943.167  1.212E+01                                            1068200200085 
    944.196  1.763E+01                                            1068200200086 
    945.229  2.499E+01                                            1068200200087 
    946.806  3.386E+01                                            1068200200088 
    950.093  2.240E+01                                            1068200200089 
    950.144  1.520E+01                                            1068200200090 
    950.299  4.601E+00                                            1068200200091 
    951.290  8.950E+00                                            1068200200092 
    951.470  2.246E+00                                            1068200200093 
    953.681  1.466E+00                                            1068200200094 
    954.600  4.972E+00                                            1068200200095 
    956.698  7.765E+00                                            1068200200096 
    956.832  2.780E+00                                            1068200200097 
    958.264  1.151E+01                                            1068200200098 
    959.277  1.894E+01                                            1068200200099 
    961.924  2.755E+01                                            1068200200100 
    963.605  1.675E+01                                            1068200200101 
    963.649  1.189E+01                                            1068200200102 
    965.845  8.724E+00                                            1068200200103 
    967.431  1.115E+01                                            1068200200104 
    967.933  1.472E+01                                            1068200200105 
    970.034  2.255E+01                                            1068200200106 
    970.060  1.846E+01                                            1068200200107 
    971.095  2.566E+01                                            1068200200108 
    974.346  2.255E+01                                            1068200200109 
    978.674  1.982E+01                                            1068200200110 
    979.731  2.329E+01                                            1068200200111 
    980.229  3.197E+01                                            1068200200112 
    980.738  4.034E+01                                            1068200200113 
    982.874  4.681E+01                                            1068200200114 
    984.514  3.932E+01                                            1068200200115 
    984.559  2.774E+01                                            1068200200116 
    985.138  2.034E+01                                            1068200200117 
    987.789  2.865E+01                                            1068200200118 
    987.810  2.438E+01                                            1068200200119 
    989.394  3.136E+01                                            1068200200120 
    989.413  2.703E+01                                            1068200200121 
    991.051  2.300E+01                                            1068200200122 
    991.078  1.858E+01                                            1068200200123 
    993.753  2.170E+01                                            1068200200124 
    994.809  2.567E+01                                            1068200200125 
    995.316  3.303E+01                                            1068200200126 
    995.809  4.682E+01                                            1068200200127 
    996.316  5.985E+01                                            1068200200128 
    997.914  6.944E+01                                            1068200200129 
   1000.045  8.430E+01                                            1068200200130 
   1003.837  7.219E+01                                            1068200200131 
   1004.399  6.064E+01                                            1068200200132 
   1004.424  4.995E+01                                            1068200200133 
   1004.987  4.142E+01                                            1068200200134 
   1008.808  2.866E+01                                            1068200200135 
   1009.906  2.454E+01                                            1068200200136 
   1012.081  2.115E+01                                            1068200200137 
   1014.752  2.535E+01                                            1068200200138 
   1015.280  2.775E+01                                            1068200200139 
   1016.912  2.455E+01                                            1068200200140 
   1017.503  1.644E+01                                            1068200200141 
   1018.015  2.022E+01                                            1068200200142 
   1018.596  1.464E+01                                            1068200200143 
   1020.777  1.206E+01                                            1068200200144 
   1023.433  1.634E+01                                            1068200200145 
   1025.018  2.089E+01                                            1068200200146 
   1026.119  1.743E+01                                            1068200200147 
   1027.218  1.483E+01                                            1068200200148 
   1027.241  1.238E+01                                            1068200200149 
   1028.802  1.908E+01                                            1068200200150 
   1028.829  1.552E+01                                            1068200200151 
   1029.852  2.362E+01                                            1068200200152 
   1032.053  1.677E+01                                            1068200200153 
   1032.571  1.971E+01                                            1068200200154 
   1033.167  1.270E+01                                            1068200200155 
   1035.897  9.687E+00                                            1068200200156 
   1036.394  1.338E+01                                            1068200200157 
   1039.052  1.778E+01                                            1068200200158 
   1040.627  2.456E+01                                            1068200200159 
   1041.671  3.180E+01                                            1068200200160 
   1043.777  4.656E+01                                            1068200200161 
   1044.884  3.738E+01                                            1068200200162 
   1045.456  2.887E+01                                            1068200200163 
   1047.640  2.317E+01                                            1068200200164 
   1052.522  1.825E+01                                            1068200200165 
   1054.094  2.587E+01                                            1068200200166 
   1055.109  4.200E+01                                            1068200200167 
   1057.291  3.437E+01                                            1068200200168 
   1057.850  2.944E+01                                            1068200200169 
   1058.954  2.394E+01                                            1068200200170 
   1062.169  2.778E+01                                            1068200200171 
   1062.684  3.350E+01                                            1068200200172 
   1064.279  3.938E+01                                            1068200200173 
   1064.792  4.811E+01                                            1068200200174 
   1066.398  5.266E+01                                            1068200200175 
   1069.127  4.041E+01                                            1068200200176 
   1069.698  3.161E+01                                            1068200200177 
   1070.266  2.521E+01                                            1068200200178 
   1072.446  2.091E+01                                            1068200200179 
   1074.511  4.201E+01                                            1068200200180 
   1074.580  2.473E+01                                            1068200200181 
   1075.075  3.483E+01                                            1068200200182 
   1075.566  5.034E+01                                            1068200200183 
   1076.070  6.604E+01                                            1068200200184 
   1077.662  7.965E+01                                            1068200200185 
   1080.931  6.072E+01                                            1068200200186 
   1080.954  5.067E+01                                            1068200200187 
   1083.684  3.863E+01                                            1068200200188 
   1084.253  3.081E+01                                            1068200200189 
   1085.364  2.380E+01                                            1068200200190 
   1085.934  1.874E+01                                            1068200200191 
   1089.755  1.288E+01                                            1068200200192 
   1092.949  1.757E+01                                            1068200200193 
   1093.986  2.411E+01                                            1068200200194 
   1094.480  3.418E+01                                            1068200200195 
   1094.967  5.069E+01                                            1068200200196 
   1095.531  4.203E+01                                            1068200200197 
   1098.188  5.621E+01                                            1068200200198 
   1099.282  4.940E+01                                            1068200200199 
   1101.457  4.258E+01                                            1068200200200 
   1104.715  3.553E+01                                            1068200200201 
   1105.809  3.143E+01                                            1068200200202 
   1107.986  2.657E+01                                            1068200200203 
   1112.812  3.226E+01                                            1068200200204 
   1117.144  2.745E+01                                            1068200200205 
   1118.203  3.185E+01                                            1068200200206 
   1120.341  3.648E+01                                            1068200200207 
   1120.857  4.371E+01                                            1068200200208 
   1122.458  4.942E+01                                            1068200200209 
   1124.047  6.117E+01                                            1068200200210 
   1126.218  5.445E+01                                            1068200200211 
   1129.441  5.885E+01                                            1068200200212 
   1132.155  5.105E+01                                            1068200200213 
   1132.180  4.206E+01                                            1068200200214 
   1133.294  3.186E+01                                            1068200200215 
   1137.046  3.720E+01                                            1068200200216 
   1137.560  4.516E+01                                            1068200200217 
   1142.411  4.516E+01                                            1068200200218 
   1142.932  5.173E+01                                            1068200200219 
   1145.065  6.159E+01                                            1068200200220 
   1147.789  4.944E+01                                            1068200200221 
   1148.896  3.944E+01                                            1068200200222 
   1150.001  3.207E+01                                            1068200200223 
   1151.104  2.625E+01                                            1068200200224 
   1153.823  2.177E+01                                            1068200200225 
   1157.092  1.659E+01                                            1068200200226 
   1159.748  2.248E+01                                            1068200200227 
   1162.407  2.949E+01                                            1068200200228 
   1165.601  4.022E+01                                            1068200200229 
   1166.163  3.357E+01                                            1068200200230 
   1168.805  5.043E+01                                            1068200200231 
   1172.552  6.162E+01                                            1068200200232 
   1175.800  5.521E+01                                            1068200200233 
   1177.974  4.790E+01                                            1068200200234 
   1180.678  4.490E+01                                            1068200200235 
   1184.433  5.110E+01                                            1068200200236 
   1187.144  4.520E+01                                            1068200200237 
   1189.863  3.748E+01                                            1068200200238 
   1190.956  3.336E+01                                            1068200200239 
   1192.052  2.913E+01                                            1068200200240 
   1192.074  2.463E+01                                            1068200200241 
   1192.638  2.016E+01                                            1068200200242 
   1195.369  1.527E+01                                            1068200200243 
   1196.961  1.853E+01                                            1068200200244 
   1198.010  2.309E+01                                            1068200200245 
   1199.065  2.767E+01                                            1068200200246 
   1200.111  3.537E+01                                            1068200200247 
   1203.368  2.952E+01                                            1068200200248 
   1207.122  3.403E+01                                            1068200200249 
   1210.862  4.378E+01                                            1068200200250 
   1213.595  3.274E+01                                            1068200200251 
   1214.159  2.697E+01                                            1068200200252 
   1214.727  2.165E+01                                            1068200200253 
   1218.531  1.694E+01                                            1068200200254 
   1220.617  2.915E+01                                            1068200200255 
   1220.650  2.251E+01                                            1068200200256 
   1222.198  3.824E+01                                            1068200200257 
   1224.316  5.114E+01                                            1068200200258 
   1225.368  6.248E+01                                            1068200200259 
   1228.046  7.110E+01                                            1068200200260 
   1230.235  5.527E+01                                            1068200200261 
   1232.410  4.764E+01                                            1068200200262 
   1232.981  3.727E+01                                            1068200200263 
   1237.265  4.613E+01                                            1068200200264 
   1241.599  3.875E+01                                            1068200200265 
   1243.774  3.340E+01                                            1068200200266 
   1246.487  2.897E+01                                            1068200200267 
   1247.037  2.664E+01                                            1068200200268 
   1249.711  3.131E+01                                            1068200200269 
   1252.394  3.428E+01                                            1068200200270 
   1254.566  3.032E+01                                            1068200200271 
   1255.688  2.153E+01                                            1068200200272 
   1256.194  2.770E+01                                            1068200200273 
   1256.215  2.357E+01                                            1068200200274 
   1258.394  1.979E+01                                            1068200200275 
   1258.952  1.706E+01                                            1068200200276 
   1262.167  1.967E+01                                            1068200200277 
   1264.303  2.297E+01                                            1068200200278 
   1265.355  2.806E+01                                            1068200200279 
   1265.877  3.193E+01                                            1068200200280 
   1267.474  3.729E+01                                            1068200200281 
   1271.257  3.451E+01                                            1068200200282 
   1272.351  3.053E+01                                            1068200200283 
   1273.447  2.648E+01                                            1068200200284 
   1276.659  3.133E+01                                            1068200200285 
   1279.873  3.658E+01                                            1068200200286 
   1282.586  3.174E+01                                            1068200200287 
   1283.680  2.807E+01                                            1068200200288 
   1285.310  2.532E+01                                            1068200200289 
   1285.866  2.225E+01                                            1068200200290 
   1289.133  1.718E+01                                            1068200200291 
   1289.632  2.343E+01                                            1068200200292 
   1291.219  2.938E+01                                            1068200200293 
   1292.274  3.520E+01                                            1068200200294 
   1295.471  4.648E+01                                            1068200200295 
   1298.184  4.058E+01                                            1068200200296 
   1299.811  3.731E+01                                            1068200200297 
   1301.945  4.414E+01                                            1068200200298 
   1304.629  4.832E+01                                            1068200200299 
   1306.266  4.138E+01                                            1068200200300 
   1307.365  3.498E+01                                            1068200200301 
   1307.388  2.938E+01                                            1068200200302 
   1309.619  1.643E+01                                            1068200200303 
   1312.833  1.918E+01                                            1068200200304 
   1315.501  2.359E+01                                            1068200200305 
   1316.557  2.791E+01                                            1068200200306 
   1319.231  3.259E+01                                            1068200200307 
   1323.015  2.997E+01                                            1068200200308 
   1326.267  2.600E+01                                            1068200200309 
   1327.369  2.156E+01                                            1068200200310 
   1328.944  2.997E+01                                            1068200200311 
   1329.995  3.686E+01                                            1068200200312 
   1335.350  4.804E+01                                            1068200200313 
   1338.076  3.783E+01                                            1068200200314 
   1339.712  3.260E+01                                            1068200200315 
   1340.816  2.669E+01                                            1068200200316 
   1340.834  2.315E+01                                            1068200200317 
   1344.632  1.907E+01                                            1068200200318 
   1345.146  2.315E+01                                            1068200200319 
   1345.627  3.616E+01                                            1068200200320 
   1346.669  4.774E+01                                            1068200200321 
   1346.727  3.057E+01                                            1068200200322 
   1349.339  5.795E+01                                            1068200200323 
   1353.131  4.963E+01                                            1068200200324 
   1359.077  4.362E+01                                            1068200200325 
   1363.969  3.158E+01                                            1068200200326 
   1368.241  4.307E+01                                            1068200200327 
   1372.004  4.624E+01                                            1068200200328 
   1375.223  5.195E+01                                            1068200200329 
   1376.289  5.687E+01                                            1068200200330 
   1380.046  6.430E+01                                            1068200200331 
   1384.876  7.509E+01                                            1068200200332 
   1388.135  6.187E+01                                            1068200200333 
   1389.230  5.437E+01                                            1068200200334 
   1390.329  4.596E+01                                            1068200200335 
   1390.888  3.962E+01                                            1068200200336 
   1391.439  3.596E+01                                            1068200200337 
   1393.070  3.222E+01                                            1068200200338 
   1394.167  2.795E+01                                            1068200200339 
   1396.336  2.520E+01                                            1068200200340 
   1397.926  3.100E+01                                            1068200200341 
   1402.807  6.982E+01                                            1068200200342 
   1405.311  6.548E+01                                            1068200200343 
   1407.219  5.967E+01                                            1068200200344 
   1407.312  5.174E+01                                            1068200200345 
   1409.901  4.267E+01                                            1068200200346 
   1412.257  5.011E+01                                            1068200200347 
   1414.031  5.597E+01                                            1068200200348 
   1418.381  5.250E+01                                            1068200200349 
   1420.312  4.616E+01                                            1068200200350 
   1422.844  4.147E+01                                            1068200200351 
   1423.497  3.918E+01                                            1068200200352 
   1427.258  3.533E+01                                            1068200200353 
   1430.867  4.017E+01                                            1068200200354 
   1433.183  5.013E+01                                            1068200200355 
   1433.906  4.254E+01                                            1068200200356 
   1436.169  5.762E+01                                            1068200200357 
   1440.552  5.141E+01                                            1068200200358 
   1440.620  4.635E+01                                            1068200200359 
   1444.388  4.135E+01                                            1068200200360 
   1446.180  4.489E+01                                            1068200200361 
   1446.740  4.891E+01                                            1068200200362 
   1449.122  5.522E+01                                            1068200200363 
   1452.775  5.868E+01                                            1068200200364 
   1452.852  5.216E+01                                            1068200200365 
   1456.627  4.603E+01                                            1068200200366 
   1458.401  5.143E+01                                            1068200200367 
   1462.011  5.828E+01                                            1068200200368 
   1463.195  6.259E+01                                            1068200200369 
   1466.303  5.976E+01                                            1068200200370 
   1468.044  7.017E+01                                            1068200200371 
   1469.830  7.700E+01                                            1068200200372 
   1471.126  6.968E+01                                            1068200200373 
   1471.795  6.419E+01                                            1068200200374 
   1473.094  5.787E+01                                            1068200200375 
   1473.785  5.162E+01                                            1068200200376 
   1475.680  4.791E+01                                            1068200200377 
   1478.222  4.243E+01                                            1068200200378 
   1481.213  4.843E+01                                            1068200200379 
   1482.989  5.390E+01                                            1068200200380 
   1484.769  5.957E+01                                            1068200200381 
   1487.786  6.536E+01                                            1068200200382 
   1493.290  6.896E+01                                            1068200200383 
   1496.398  6.585E+01                                            1068200200384 
   1498.317  5.895E+01                                            1068200200385 
   1499.639  5.129E+01                                            1068200200386 
   1500.205  5.528E+01                                            1068200200387 
   1501.544  4.691E+01                                            1068200200388 
   1504.720  4.039E+01                                            1068200200389 
   1506.503  4.447E+01                                            1068200200390 
   1508.272  5.003E+01                                            1068200200391 
   1508.819  5.549E+01                                            1068200200392 
   1509.390  5.939E+01                                            1068200200393 
   1509.940  6.563E+01                                            1068200200394 
   1511.091  7.410E+01                                            1068200200395 
   1513.481  8.278E+01                                            1068200200396 
   1518.959  9.084E+01                                            1068200200397 
   1520.868  8.249E+01                                            1068200200398 
   1522.792  7.333E+01                                            1068200200399 
   1522.853  6.683E+01                                            1068200200400 
   1525.221  7.709E+01                                            1068200200401 
   1528.959  7.204E+01                                            1068200200402 
   1530.842  6.804E+01                                            1068200200403 
   1533.969  6.313E+01                                            1068200200404 
   1537.734  5.652E+01                                            1068200200405 
   1540.236  5.320E+01                                            1068200200406 
   1541.401  5.880E+01                                            1068200200407 
   1543.791  6.568E+01                                            1068200200408 
   1544.968  7.130E+01                                            1068200200409 
   1548.635  7.416E+01                                            1068200200410 
   1551.785  6.640E+01                                            1068200200411 
   1551.839  6.116E+01                                            1068200200412 
   1553.725  5.757E+01                                            1068200200413 
   1557.347  6.408E+01                                            1068200200414 
   1562.854  6.737E+01                                            1068200200415 
   1564.658  7.184E+01                                            1068200200416 
   1565.210  7.911E+01                                            1068200200417 
   1567.625  8.497E+01                                            1068200200418 
   1569.535  7.717E+01                                            1068200200419 
   1570.213  7.008E+01                                            1068200200420 
   1570.279  6.341E+01                                            1068200200421 
   1571.566  5.821E+01                                            1068200200422 
   1572.245  5.286E+01                                            1068200200423 
   1574.789  4.666E+01                                            1068200200424 
   1574.855  4.221E+01                                            1068200200425 
   1578.461  4.818E+01                                            1068200200426 
   1579.024  5.212E+01                                            1068200200427 
   1581.437  5.618E+01                                            1068200200428 
   1583.861  5.948E+01                                            1068200200429 
   1585.745  5.619E+01                                            1068200200430 
   1589.387  6.078E+01                                            1068200200431 
   1594.900  6.322E+01                                            1068200200432 
   1596.681  6.987E+01                                            1068200200433 
   1600.956  7.346E+01                                            1068200200434 
   1603.474  6.743E+01                                            1068200200435 
   1604.745  6.346E+01                                            1068200200436 
   1606.074  5.463E+01                                            1068200200437 
   1606.631  5.972E+01                                            1068200200438 
   1609.189  5.159E+01                                            1068200200439 
   1610.972  5.682E+01                                            1068200200440 
   1612.692  6.891E+01                                            1068200200441 
   1612.748  6.325E+01                                            1068200200442 
   1613.249  7.533E+01                                            1068200200443 
   1615.046  8.120E+01                                            1068200200444 
   1618.704  8.567E+01                                            1068200200445 
   1619.977  8.035E+01                                            1068200200446 
   1621.898  7.168E+01                                            1068200200447 
   1623.824  6.349E+01                                            1068200200448 
   1625.734  5.765E+01                                            1068200200449 
   1629.467  5.427E+01                                            1068200200450 
   1631.889  5.766E+01                                            1068200200451 
   1633.061  6.305E+01                                            1068200200452 
   1636.068  7.018E+01                                            1068200200453 
   1637.964  6.512E+01                                            1068200200454 
   1639.244  6.042E+01                                            1068200200455 
   1640.517  5.666E+01                                            1068200200456 
   1641.186  5.219E+01                                            1068200200457 
   1641.252  4.722E+01                                            1068200200458 
   1643.164  4.273E+01                                            1068200200459 
   1646.305  3.881E+01                                            1068200200460 
   1647.442  4.477E+01                                            1068200200461 
   1647.989  4.965E+01                                            1068200200462 
   1649.772  5.468E+01                                            1068200200463 
   1651.544  6.130E+01                                            1068200200464 
   1652.718  6.678E+01                                            1068200200465 
   1653.909  7.096E+01                                            1068200200466 
   1654.476  7.649E+01                                            1068200200467 
   1655.051  8.128E+01                                            1068200200468 
   1655.617  8.760E+01                                            1068200200469 
   1657.415  9.442E+01                                            1068200200470 
   1660.476  9.682E+01                                            1068200200471 
   1660.515  9.112E+01                                            1068200200472 
   1663.034  8.364E+01                                            1068200200473 
   1663.715  7.569E+01                                            1068200200474 
   1667.482  6.753E+01                                            1068200200475 
   1669.345  6.586E+01                                            1068200200476 
   1672.369  7.150E+01                                            1068200200477 
   1674.175  7.598E+01                                            1068200200478 
   1675.458  7.024E+01                                            1068200200479 
   1677.346  6.587E+01                                            1068200200480 
   1678.626  6.111E+01                                            1068200200481 
   1680.543  5.491E+01                                            1068200200482 
   1681.229  4.934E+01                                            1068200200483 
   1682.507  4.593E+01                                            1068200200484 
   1686.253  4.232E+01                                            1068200200485 
   1688.678  4.481E+01                                            1068200200486 
   1691.086  4.865E+01                                            1068200200487 
   1693.498  5.244E+01                                            1068200200488 
   1695.909  5.673E+01                                            1068200200489 
   1697.095  6.070E+01                                            1068200200490 
   1697.661  6.544E+01                                            1068200200491 
   1700.699  6.953E+01                                            1068200200492 
   1703.809  6.614E+01                                            1068200200493 
   1704.459  6.270E+01                                            1068200200494 
   1705.733  5.880E+01                                            1068200200495 
   1707.003  5.534E+01                                            1068200200496 
   1708.284  5.134E+01                                            1068200200497 
   1709.564  4.763E+01                                            1068200200498 
   1713.860  4.850E+01                                            1068200200499 
   1716.383  4.420E+01                                            1068200200500 
   1721.262  4.731E+01                                            1068200200501 
   1723.165  4.343E+01                                            1068200200502 
   1726.216  4.517E+01                                            1068200200503 
   1728.110  4.206E+01                                            1068200200504 
   1730.038  3.712E+01                                            1068200200505 
   1731.784  4.328E+01                                            1068200200506 
   1732.933  4.904E+01                                            1068200200507 
   1733.506  5.230E+01                                            1068200200508 
   1736.543  5.557E+01                                            1068200200509 
   1738.359  5.822E+01                                            1068200200510 
   1742.094  5.460E+01                                            1068200200511 
   1743.393  4.922E+01                                            1068200200512 
   1745.899  4.600E+01                                            1068200200513 
   1747.572  5.992E+01                                            1068200200514 
   1747.669  5.176E+01                                            1068200200515 
   1748.759  6.412E+01                                            1068200200516 
   1749.290  7.291E+01                                            1068200200517 
   1753.650  6.741E+01                                            1068200200518 
   1756.673  7.318E+01                                            1068200200519 
   1758.583  6.646E+01                                            1068200200520 
   1762.865  6.913E+01                                            1068200200521 
   1767.199  6.648E+01                                            1068200200522 
   1768.475  6.212E+01                                            1068200200523 
   1770.373  5.743E+01                                            1068200200524 
   1771.033  5.367E+01                                            1068200200525 
   1771.094  4.891E+01                                            1068200200526 
   1772.411  4.286E+01                                            1068200200527 
   1774.815  4.686E+01                                            1068200200528 
   1775.985  5.142E+01                                            1068200200529 
   1776.555  5.503E+01                                            1068200200530 
   1778.970  5.910E+01                                            1068200200531 
   1780.765  6.394E+01                                            1068200200532 
   1782.677  5.785E+01                                            1068200200533 
   1785.834  5.124E+01                                            1068200200534 
   1787.744  4.654E+01                                            1068200200535 
   1790.269  4.226E+01                                            1068200200536 
   1792.176  3.852E+01                                            1068200200537 
   1794.673  3.651E+01                                            1068200200538 
   1795.371  3.222E+01                                            1068200200539 
   1799.160  2.785E+01                                            1068200200540 
   1800.861  3.474E+01                                            1068200200541 
   1800.913  3.211E+01                                            1068200200542 
   1802.616  3.992E+01                                            1068200200543 
   1803.278  3.718E+01                                            1068200200544 
   1805.635  4.366E+01                                            1068200200545 
   1809.828  5.201E+01                                            1068200200546 
   1811.759  4.574E+01                                            1068200200547 
   1818.522  4.624E+01                                            1068200200548 
   1819.187  4.291E+01                                            1068200200549 
   1821.737  3.746E+01                                            1068200200550 
   1824.073  4.543E+01                                            1068200200551 
   1825.247  4.950E+01                                            1068200200552 
   1827.155  4.511E+01                                            1068200200553 
   1829.079  4.010E+01                                            1068200200554 
   1833.284  4.693E+01                                            1068200200555 
   1836.434  4.201E+01                                            1068200200556 
   1838.233  4.512E+01                                            1068200200557 
   1841.390  3.996E+01                                            1068200200558 
   1842.523  4.643E+01                                            1068200200559 
   1844.926  5.076E+01                                            1068200200560 
   1846.101  5.531E+01                                            1068200200561 
   1849.737  6.027E+01                                            1068200200562 
   1854.574  6.878E+01                                            1068200200563 
   1858.328  6.269E+01                                            1068200200564 
   1859.603  5.858E+01                                            1068200200565 
   1860.294  5.226E+01                                            1068200200566 
   1864.510  6.007E+01                                            1068200200567 
   1865.662  6.782E+01                                            1068200200568 
   1868.627  8.050E+01                                            1068200200569 
   1870.985  9.420E+01                                            1068200200570 
   1872.738  1.086E+02                                            1068200200571 
   1877.579  1.231E+02                                            1068200200572 
   1880.746  1.075E+02                                            1068200200573 
   1882.035  9.834E+01                                            1068200200574 
   1883.360  8.526E+01                                            1068200200575 
   1884.081  7.261E+01                                            1068200200576 
   1885.993  6.570E+01                                            1068200200577 
   1887.926  5.758E+01                                            1068200200578 
   1889.256  4.957E+01                                            1068200200579 
   1891.177  4.422E+01                                            1068200200580 
   1893.716  3.931E+01                                            1068200200581 
   1898.563  4.423E+01                                            1068200200582 
   1899.679  5.268E+01                                            1068200200583 
   1899.740  4.801E+01                                            1068200200584 
   1902.080  5.780E+01                                            1068200200585 
   1905.089  6.411E+01                                            1068200200586 
   1907.630  5.679E+01                                            1068200200587 
   1913.123  6.100E+01                                            1068200200588 
   1916.263  5.540E+01                                            1068200200589 
   1919.912  5.929E+01                                            1068200200590 
   1921.096  6.368E+01                                            1068200200591 
   1923.637  5.640E+01                                            1068200200592 
   1925.554  5.068E+01                                            1068200200593 
   1927.967  5.463E+01                                            1068200200594 
   1929.141  5.951E+01                                            1068200200595 
   1929.710  6.392E+01                                            1068200200596 
   1931.509  6.865E+01                                            1068200200597 
   1934.509  7.724E+01                                            1068200200598 
   1936.290  8.536E+01                                            1068200200599 
   1937.465  9.299E+01                                            1068200200600 
   1939.344  8.847E+01                                            1068200200601 
   1943.023  9.039E+01                                            1068200200602 
   1944.937  8.150E+01                                            1068200200603 
   1944.998  7.428E+01                                            1068200200604 
   1946.896  6.867E+01                                            1068200200605 
   1948.195  6.192E+01                                            1068200200606 
   1950.107  5.604E+01                                            1068200200607 
   1953.140  5.997E+01                                            1068200200608 
   1955.555  6.441E+01                                            1068200200609 
   1957.284  7.700E+01                                            1068200200610 
   1957.342  7.043E+01                                            1068200200611 
   1959.086  8.241E+01                                            1068200200612 
   1962.842  7.485E+01                                            1068200200613 
   1965.268  7.896E+01                                            1068200200614 
   1970.227  7.485E+01                                            1068200200615 
   1972.677  7.621E+01                                            1068200200616 
   1973.974  6.896E+01                                            1068200200617 
   1977.714  6.422E+01                                            1068200200618 
   1979.010  5.811E+01                                            1068200200619 
   1982.141  5.354E+01                                            1068200200620 
   1982.698  5.853E+01                                            1068200200621 
   1985.726  6.309E+01                                            1068200200622 
   1987.528  6.752E+01                                            1068200200623 
   1991.162  7.383E+01                                            1068200200624 
   1994.193  7.930E+01                                            1068200200625 
   1997.355  6.974E+01                                            1068200200626 
   2001.026  7.202E+01                                            1068200200627 
   2004.111  7.126E+01                                            1068200200628 
   2006.006  6.611E+01                                            1068200200629 
   2007.174  7.281E+01                                            1068200200630 
   2009.612  7.546E+01                                            1068200200631 
   2012.044  7.904E+01                                            1068200200632 
   2014.487  8.134E+01                                            1068200200633 
   2016.310  8.430E+01                                            1068200200634 
   2017.611  7.574E+01                                            1068200200635 
   2020.113  7.129E+01                                            1068200200636 
   2021.997  6.733E+01                                            1068200200637 
   2023.880  6.359E+01                                            1068200200638 
   2026.878  7.181E+01                                            1068200200639 
   2026.913  6.807E+01                                            1068200200640 
   2029.920  7.576E+01                                            1068200200641 
   2031.745  7.824E+01                                            1068200200642 
   2035.408  8.196E+01                                            1068200200643 
   2037.823  8.803E+01                                            1068200200644 
   2039.643  9.156E+01                                            1068200200645 
   2041.464  9.523E+01                                            1068200200646 
   2044.600  8.710E+01                                            1068200200647 
   2047.155  7.552E+01                                            1068200200648 
   2047.722  8.140E+01                                            1068200200649 
   2050.291  6.908E+01                                            1068200200650 
   2050.348  6.340E+01                                            1068200200651 
   2053.484  5.800E+01                                            1068200200652 
   2055.283  6.229E+01                                            1068200200653 
   2057.679  6.884E+01                                            1068200200654 
   2059.481  7.367E+01                                            1068200200655 
   2062.509  7.942E+01                                            1068200200656 
   2066.258  7.290E+01                                            1068200200657 
   2069.258  8.202E+01                                            1068200200658 
   2074.248  7.423E+01                                            1068200200659 
   2077.346  7.189E+01                                            1068200200660 
   2080.999  7.639E+01                                            1068200200661 
   2087.748  7.890E+01                                            1068200200662 
   2088.424  7.190E+01                                            1068200200663 
   2092.169  6.648E+01                                            1068200200664 
   2093.971  7.115E+01                                            1068200200665 
   2099.554  6.649E+01                                            1068200200666 
ENDDATA            652          0                                 1068200200667 
ENDSUBENT          666          0                                 1068200299999 
SUBENT        10682003   20141003                             14041068200300001 
BIB                  3          9                                 1068200300002 
REACTION   (26-FE-0(N,INL)26-FE-0,PAR,SIG)                        1068200300003 
STATUS     (CURVE) Figs. 6-7, page 425.                           1068200300004 
            Continuous curves, points for digitization were       1068200300005 
            determined by compiler.                               1068200300006 
           (DEP,10682002)                                         1068200300007 
           (DEP,10682005)                                         1068200300008 
HISTORY    (19840227A) Reaction corrected.                        1068200300009 
           (19860613A) BIB update.                                1068200300010 
           (20141020A) BP: Reaction corrected, data added.        1068200300011 
ENDBIB               9          0                                 1068200300012 
COMMON               1          3                                 1068200300013 
E-LVL                                                             1068200300014 
KEV                                                               1068200300015 
  846.                                                            1068200300016 
ENDCOMMON            3          0                                 1068200300017 
DATA                 2        489                                 1068200300018 
EN         DATA                                                   1068200300019 
KEV        MB                                                     1068200300020 
    859.408  1.316E+01                                            1068200300021 
    859.611  1.826E+01                                            1068200300022 
    863.202  5.982E+01                                            1068200300023 
    866.434  1.098E+02                                            1068200300024 
    872.230  7.933E+02                                            1068200300025 
    873.808  6.377E+02                                            1068200300026 
    874.743  4.564E+02                                            1068200300027 
    875.090  3.179E+02                                            1068200300028 
    876.850  1.364E+02                                            1068200300029 
    879.955  8.120E+01                                            1068200300030 
    882.607  5.851E+01                                            1068200300031 
    885.150  2.228E+02                                            1068200300032 
    885.403  1.335E+02                                            1068200300033 
    887.874  1.803E+02                                            1068200300034 
    891.461  2.335E+02                                            1068200300035 
    895.138  2.203E+01                                            1068200300036 
    896.132  4.358E+01                                            1068200300037 
    903.340  1.940E+02                                            1068200300038 
    908.916  6.207E+01                                            1068200300039 
    915.490  2.495E+02                                            1068200300040 
    918.718  7.206E+01                                            1068200300041 
    918.731  1.847E+02                                            1068200300042 
    920.681  4.290E+01                                            1068200300043 
    923.287  7.203E+01                                            1068200300044 
    923.917  1.990E+02                                            1068200300045 
    927.949  2.101E+02                                            1068200300046 
    928.880  1.494E+02                                            1068200300047 
    931.997  5.727E+02                                            1068200300048 
    934.658  1.051E+03                                            1068200300049 
    936.541  5.495E+02                                            1068200300050 
    938.669  1.699E+02                                            1068200300051 
    941.139  9.131E+01                                            1068200300052 
    943.982  2.247E+02                                            1068200300053 
    944.393  1.733E+02                                            1068200300054 
    945.835  2.813E+02                                            1068200300055 
    947.561  2.871E+02                                            1068200300056 
    947.836  4.473E+02                                            1068200300057 
    949.651  2.097E+02                                            1068200300058 
    951.889  7.745E+01                                            1068200300059 
    952.621  3.995E+01                                            1068200300060 
    954.478  2.006E+01                                            1068200300061 
    955.493  4.105E+01                                            1068200300062 
    956.386  6.894E+01                                            1068200300063 
    957.278  1.158E+02                                            1068200300064 
    957.964  1.392E+02                                            1068200300065 
    958.835  2.259E+02                                            1068200300066 
    961.953  3.447E+02                                            1068200300067 
    963.455  2.451E+02                                            1068200300068 
    965.456  1.551E+02                                            1068200300069 
    967.008  1.197E+02                                            1068200300070 
    968.963  1.765E+02                                            1068200300071 
    969.707  2.335E+02                                            1068200300072 
    970.384  2.769E+02                                            1068200300073 
    974.399  2.845E+02                                            1068200300074 
    978.942  2.730E+02                                            1068200300075 
    980.271  3.685E+02                                            1068200300076 
    982.729  4.873E+02                                            1068200300077 
    983.431  6.021E+02                                            1068200300078 
    985.318  3.170E+02                                            1068200300079 
    985.491  4.193E+02                                            1068200300080 
    988.051  2.600E+02                                            1068200300081 
    989.421  3.758E+02                                            1068200300082 
    992.564  2.379E+02                                            1068200300083 
    994.125  4.673E+02                                            1068200300084 
    995.399  5.773E+02                                            1068200300085 
    997.209  6.753E+02                                            1068200300086 
    997.954  8.932E+02                                            1068200300087 
   1000.911  1.052E+03                                            1068200300088 
   1003.022  7.950E+02                                            1068200300089 
   1004.075  6.888E+02                                            1068200300090 
   1005.129  5.968E+02                                            1068200300091 
   1006.169  5.066E+02                                            1068200300092 
   1007.764  4.185E+02                                            1068200300093 
   1008.217  3.457E+02                                            1068200300094 
   1011.462  2.577E+02                                            1068200300095 
   1013.277  3.035E+02                                            1068200300096 
   1015.650  3.502E+02                                            1068200300097 
   1016.098  2.873E+02                                            1068200300098 
   1016.991  1.921E+02                                            1068200300099 
   1017.702  2.406E+02                                            1068200300100 
   1019.956  2.293E+02                                            1068200300101 
   1023.878  2.028E+02                                            1068200300102 
   1024.111  2.951E+02                                            1068200300103 
   1027.148  1.575E+02                                            1068200300104 
   1027.271  1.919E+02                                            1068200300105 
   1029.648  2.230E+02                                            1068200300106 
   1031.002  3.136E+02                                            1068200300107 
   1032.445  2.026E+02                                            1068200300108 
   1033.917  1.373E+02                                            1068200300109 
   1036.349  1.743E+02                                            1068200300110 
   1037.030  2.081E+02                                            1068200300111 
   1037.170  2.607E+02                                            1068200300112 
   1037.876  3.242E+02                                            1068200300113 
   1039.188  4.259E+02                                            1068200300114 
   1040.423  4.949E+02                                            1068200300115 
   1042.805  5.788E+02                                            1068200300116 
   1044.971  4.781E+02                                            1068200300117 
   1045.432  4.003E+02                                            1068200300118 
   1046.439  3.218E+02                                            1068200300119 
   1048.592  2.604E+02                                            1068200300120 
   1048.626  2.750E+02                                            1068200300121 
   1051.418  2.482E+02                                            1068200300122 
   1053.318  3.350E+02                                            1068200300123 
   1053.453  4.168E+02                                            1068200300124 
   1055.335  5.475E+02                                            1068200300125 
   1056.304  4.138E+02                                            1068200300126 
   1057.349  3.537E+02                                            1068200300127 
   1059.528  2.982E+02                                            1068200300128 
   1061.994  3.998E+02                                            1068200300129 
   1062.671  4.741E+02                                            1068200300130 
   1063.356  5.699E+02                                            1068200300131 
   1066.736  5.286E+02                                            1068200300132 
   1066.863  6.486E+02                                            1068200300133 
   1068.784  3.607E+02                                            1068200300134 
   1069.448  4.190E+02                                            1068200300135 
   1072.033  2.707E+02                                            1068200300136 
   1073.315  3.390E+02                                            1068200300137 
   1074.897  6.892E+02                                            1068200300138 
   1076.217  9.178E+02                                            1068200300139 
   1077.456  1.074E+03                                            1068200300140 
   1079.546  7.843E+02                                            1068200300141 
   1079.914  5.652E+02                                            1068200300142 
   1079.986  6.347E+02                                            1068200300143 
   1081.526  4.798E+02                                            1068200300144 
   1083.552  3.164E+02                                            1068200300145 
   1084.255  3.909E+02                                            1068200300146 
   1084.585  2.649E+02                                            1068200300147 
   1086.218  2.327E+02                                            1068200300148 
   1088.324  1.747E+02                                            1068200300149 
   1089.530  1.935E+02                                            1068200300150 
   1091.341  2.263E+02                                            1068200300151 
   1092.060  2.874E+02                                            1068200300152 
   1093.430  4.153E+02                                            1068200300153 
   1093.879  3.407E+02                                            1068200300154 
   1094.128  5.096E+02                                            1068200300155 
   1097.212  7.364E+02                                            1068200300156 
   1098.223  5.960E+02                                            1068200300157 
   1100.394  4.956E+02                                            1068200300158 
   1100.872  4.265E+02                                            1068200300159 
   1103.638  3.695E+02                                            1068200300160 
   1107.014  3.403E+02                                            1068200300161 
   1112.793  3.794E+02                                            1068200300162 
   1112.869  4.290E+02                                            1068200300163 
   1114.663  4.883E+02                                            1068200300164 
   1117.421  4.173E+02                                            1068200300165 
   1119.283  5.297E+02                                            1068200300166 
   1121.093  6.196E+02                                            1068200300167 
   1124.545  6.453E+02                                            1068200300168 
   1127.270  5.222E+02                                            1068200300169 
   1129.486  4.681E+02                                            1068200300170 
   1132.735  3.514E+02                                            1068200300171 
   1135.697  4.166E+02                                            1068200300172 
   1136.940  4.906E+02                                            1068200300173 
   1137.055  5.899E+02                                            1068200300174 
   1137.685  6.490E+02                                            1068200300175 
   1140.422  5.360E+02                                            1068200300176 
   1142.787  6.100E+02                                            1068200300177 
   1147.212  4.836E+02                                            1068200300178 
   1147.309  5.657E+02                                            1068200300179 
   1147.677  4.077E+02                                            1068200300180 
   1148.731  3.533E+02                                            1068200300181 
   1152.043  2.937E+02                                            1068200300182 
   1152.529  2.563E+02                                            1068200300183 
   1156.409  2.116E+02                                            1068200300184 
   1158.202  2.409E+02                                            1068200300185 
   1161.781  3.078E+02                                            1068200300186 
   1163.626  3.803E+02                                            1068200300187 
   1164.916  4.828E+02                                            1068200300188 
   1168.994  5.494E+02                                            1068200300189 
   1170.170  5.802E+02                                            1068200300190 
   1172.374  5.096E+02                                            1068200300191 
   1174.600  4.630E+02                                            1068200300192 
   1179.257  5.342E+02                                            1068200300193 
   1183.792  5.056E+02                                            1068200300194 
   1187.126  4.350E+02                                            1068200300195 
   1189.317  3.743E+02                                            1068200300196 
   1190.773  2.468E+02                                            1068200300197 
   1190.925  3.155E+02                                            1068200300198 
   1194.051  1.943E+02                                            1068200300199 
   1194.144  2.258E+02                                            1068200300200 
   1194.931  3.198E+02                                            1068200300201 
   1197.880  3.715E+02                                            1068200300202 
   1205.917  3.974E+02                                            1068200300203 
   1207.707  4.493E+02                                            1068200300204 
   1209.873  3.711E+02                                            1068200300205 
   1211.451  2.982E+02                                            1068200300206 
   1211.531  3.395E+02                                            1068200300207 
   1213.058  2.514E+02                                            1068200300208 
   1215.241  2.134E+02                                            1068200300209 
   1217.120  2.784E+02                                            1068200300210 
   1218.406  3.511E+02                                            1068200300211 
   1221.468  4.903E+02                                            1068200300212 
   1221.608  6.141E+02                                            1068200300213 
   1225.242  8.576E+02                                            1068200300214 
   1227.455  7.636E+02                                            1068200300215 
   1227.920  6.438E+02                                            1068200300216 
   1229.519  5.354E+02                                            1068200300217 
   1233.969  4.421E+02                                            1068200300218 
   1237.413  4.542E+02                                            1068200300219 
   1241.910  4.043E+02                                            1068200300220 
   1242.963  3.503E+02                                            1068200300221 
   1244.613  3.162E+02                                            1068200300222 
   1248.137  3.698E+02                                            1068200300223 
   1250.929  3.338E+02                                            1068200300224 
   1254.847  2.931E+02                                            1068200300225 
   1256.484  2.592E+02                                            1068200300226 
   1258.692  2.292E+02                                            1068200300227 
   1261.619  2.573E+02                                            1068200300228 
   1262.330  3.222E+02                                            1068200300229 
   1264.158  3.874E+02                                            1068200300230 
   1264.818  4.470E+02                                            1068200300231 
   1268.748  4.006E+02                                            1068200300232 
   1272.026  3.154E+02                                            1068200300233 
   1274.988  3.740E+02                                            1068200300234 
   1276.231  4.405E+02                                            1068200300235 
   1280.728  3.921E+02                                            1068200300236 
   1281.777  3.374E+02                                            1068200300237 
   1283.402  2.923E+02                                            1068200300238 
   1287.285  2.431E+02                                            1068200300239 
   1289.143  3.065E+02                                            1068200300240 
   1290.450  3.999E+02                                            1068200300241 
   1292.320  5.146E+02                                            1068200300242 
   1297.510  5.582E+02                                            1068200300243 
   1301.517  5.657E+02                                            1068200300244 
   1303.712  4.901E+02                                            1068200300245 
   1304.740  4.076E+02                                            1068200300246 
   1305.751  3.299E+02                                            1068200300247 
   1308.920  2.175E+02                                            1068200300248 
   1311.877  2.561E+02                                            1068200300249 
   1314.280  3.100E+02                                            1068200300250 
   1317.283  3.935E+02                                            1068200300251 
   1321.201  3.455E+02                                            1068200300252 
   1324.001  3.161E+02                                            1068200300253 
   1328.832  4.824E+02                                            1068200300254 
   1332.898  5.378E+02                                            1068200300255 
   1335.652  4.565E+02                                            1068200300256 
   1337.822  3.796E+02                                            1068200300257 
   1338.837  3.093E+02                                            1068200300258 
   1340.470  2.717E+02                                            1068200300259 
   1342.387  3.769E+02                                            1068200300260 
   1344.840  4.950E+02                                            1068200300261 
   1349.617  6.913E+02                                            1068200300262 
   1350.666  5.949E+02                                            1068200300263 
   1352.819  4.814E+02                                            1068200300264 
   1357.511  5.864E+02                                            1068200300265 
   1358.555  5.012E+02                                            1068200300266 
   1364.267  5.010E+02                                            1068200300267 
   1367.761  5.586E+02                                            1068200300268 
   1372.960  6.143E+02                                            1068200300269 
   1373.650  7.435E+02                                            1068200300270 
   1377.728  8.461E+02                                            1068200300271 
   1381.848  1.031E+03                                            1068200300272 
   1385.106  7.845E+02                                            1068200300273 
   1386.671  6.177E+02                                            1068200300274 
   1389.349  4.637E+02                                            1068200300275 
   1389.776  3.677E+02                                            1068200300276 
   1391.904  2.856E+02                                            1068200300277 
   1395.542  4.016E+02                                            1068200300278 
   1401.743  6.760E+02                                            1068200300279 
   1401.836  8.821E+02                                            1068200300280 
   1404.592  6.431E+02                                            1068200300281 
   1408.083  4.929E+02                                            1068200300282 
   1409.569  5.724E+02                                            1068200300283 
   1411.056  6.676E+02                                            1068200300284 
   1413.228  7.105E+02                                            1068200300285 
   1414.586  5.724E+02                                            1068200300286 
   1418.138  5.224E+02                                            1068200300287 
   1420.984  4.928E+02                                            1068200300288 
   1423.837  4.727E+02                                            1068200300289 
   1430.276  4.572E+02                                            1068200300290 
   1431.776  5.536E+02                                            1068200300291 
   1435.363  5.582E+02                                            1068200300292 
   1435.455  7.253E+02                                            1068200300293 
   1438.925  5.244E+02                                            1068200300294 
   1442.547  5.842E+02                                            1068200300295 
   1450.440  5.989E+02                                            1068200300296 
   1453.983  5.331E+02                                            1068200300297 
   1457.611  6.064E+02                                            1068200300298 
   1461.947  6.700E+02                                            1068200300299 
   1467.722  7.526E+02                                            1068200300300 
   1469.818  6.453E+02                                            1068200300301 
   1471.907  5.419E+02                                            1068200300302 
   1474.761  5.220E+02                                            1068200300303 
   1475.517  5.840E+02                                            1068200300304 
   1479.147  6.671E+02                                            1068200300305 
   1484.958  8.314E+02                                            1068200300306 
   1489.242  7.909E+02                                            1068200300307 
   1491.373  7.493E+02                                            1068200300308 
   1493.500  7.011E+02                                            1068200300309 
   1496.325  6.214E+02                                            1068200300310 
   1498.439  5.601E+02                                            1068200300311 
   1502.719  5.284E+02                                            1068200300312 
   1506.364  6.292E+02                                            1068200300313 
   1507.173  8.209E+02                                            1068200300314 
   1510.078  9.146E+02                                            1068200300315 
   1515.809  9.069E+02                                            1068200300316 
   1520.066  8.006E+02                                            1068200300317 
   1525.124  8.993E+02                                            1068200300318 
   1525.821  8.485E+02                                            1068200300319 
   1528.644  7.490E+02                                            1068200300320 
   1531.475  6.750E+02                                            1068200300321 
   1537.169  6.033E+02                                            1068200300322 
   1540.822  7.335E+02                                            1068200300323 
   1546.567  7.582E+02                                            1068200300324 
   1549.361  6.159E+02                                            1068200300325 
   1555.878  7.425E+02                                            1068200300326 
   1558.056  8.035E+02                                            1068200300327 
   1562.397  9.027E+02                                            1068200300328 
   1565.226  8.102E+02                                            1068200300329 
   1568.044  7.034E+02                                            1068200300330 
   1568.725  6.366E+02                                            1068200300331 
   1569.375  5.258E+02                                            1068200300332 
   1570.751  4.452E+02                                            1068200300333 
   1574.436  5.956E+02                                            1068200300334 
   1579.491  6.635E+02                                            1068200300335 
   1580.896  6.106E+02                                            1068200300336 
   1585.943  6.662E+02                                            1068200300337 
   1590.985  7.150E+02                                            1068200300338 
   1593.896  8.099E+02                                            1068200300339 
   1597.464  7.737E+02                                            1068200300340 
   1601.036  7.483E+02                                            1068200300341 
   1602.437  6.829E+02                                            1068200300342 
   1608.206  7.545E+02                                            1068200300343 
   1610.397  8.476E+02                                            1068200300344 
   1610.435  9.444E+02                                            1068200300345 
   1614.028  9.682E+02                                            1068200300346 
   1616.143  8.762E+02                                            1068200300347 
   1618.248  7.703E+02                                            1068200300348 
   1619.648  7.000E+02                                            1068200300349 
   1623.196  6.309E+02                                            1068200300350 
   1626.076  6.549E+02                                            1068200300351 
   1630.392  6.855E+02                                            1068200300352 
   1633.957  6.494E+02                                            1068200300353 
   1634.651  6.077E+02                                            1068200300354 
   1637.490  5.615E+02                                            1068200300355 
   1641.033  4.998E+02                                            1068200300356 
   1644.672  5.853E+02                                            1068200300357 
   1646.158  6.797E+02                                            1068200300358 
   1648.342  7.479E+02                                            1068200300359 
   1651.275  9.055E+02                                            1068200300360 
   1653.452  9.758E+02                                            1068200300361 
   1656.341  1.039E+03                                            1068200300362 
   1658.446  9.130E+02                                            1068200300363 
   1663.402  7.667E+02                                            1068200300364 
   1666.289  8.126E+02                                            1068200300365 
   1671.327  8.612E+02                                            1068200300366 
   1674.150  7.602E+02                                            1068200300367 
   1676.206  5.802E+02                                            1068200300368 
   1676.974  6.711E+02                                            1068200300369 
   1679.757  5.273E+02                                            1068200300370 
   1681.878  4.852E+02                                            1068200300371 
   1686.212  5.339E+02                                            1068200300372 
   1689.829  5.874E+02                                            1068200300373 
   1692.031  6.822E+02                                            1068200300374 
   1697.079  7.444E+02                                            1068200300375 
   1701.357  6.964E+02                                            1068200300376 
   1702.037  6.277E+02                                            1068200300377 
   1707.032  5.897E+02                                            1068200300378 
   1711.327  5.800E+02                                            1068200300379 
   1717.049  5.610E+02                                            1068200300380 
   1721.328  5.270E+02                                            1068200300381 
   1722.741  4.972E+02                                            1068200300382 
   1726.296  4.575E+02                                            1068200300383 
   1729.918  5.097E+02                                            1068200300384 
   1732.822  5.679E+02                                            1068200300385 
   1739.286  5.895E+02                                            1068200300386 
   1742.187  6.486E+02                                            1068200300387 
   1748.020  8.604E+02                                            1068200300388 
   1752.292  7.951E+02                                            1068200300389 
   1755.841  7.195E+02                                            1068200300390 
   1762.317  7.722E+02                                            1068200300391 
   1764.426  6.873E+02                                            1068200300392 
   1765.107  6.195E+02                                            1068200300393 
   1770.079  5.445E+02                                            1068200300394 
   1772.991  6.194E+02                                            1068200300395 
   1775.173  6.787E+02                                            1068200300396 
   1780.225  7.499E+02                                            1068200300397 
   1783.043  6.510E+02                                            1068200300398 
   1783.723  5.868E+02                                            1068200300399 
   1785.137  5.536E+02                                            1068200300400 
   1786.550  5.223E+02                                            1068200300401 
   1787.969  5.010E+02                                            1068200300402 
   1789.343  4.225E+02                                            1068200300403 
   1789.363  4.478E+02                                            1068200300404 
   1789.383  4.746E+02                                            1068200300405 
   1791.474  4.002E+02                                            1068200300406 
   1795.020  3.592E+02                                            1068200300407 
   1797.201  3.920E+02                                            1068200300408 
   1798.659  4.207E+02                                            1068200300409 
   1800.123  4.590E+02                                            1068200300410 
   1800.866  4.947E+02                                            1068200300411 
   1802.327  5.354E+02                                            1068200300412 
   1803.794  5.891E+02                                            1068200300413 
   1807.344  5.353E+02                                            1068200300414 
   1812.344  5.092E+02                                            1068200300415 
   1816.620  4.745E+02                                            1068200300416 
   1821.662  5.092E+02                                            1068200300417 
   1826.663  4.864E+02                                            1068200300418 
   1832.406  4.987E+02                                            1068200300419 
   1836.724  5.241E+02                                            1068200300420 
   1840.338  5.719E+02                                            1068200300421 
   1841.093  6.372E+02                                            1068200300422 
   1843.279  7.069E+02                                            1068200300423 
   1844.739  7.619E+02                                            1068200300424 
   1849.069  8.279E+02                                            1068200300425 
   1853.346  7.746E+02                                            1068200300426 
   1857.606  6.894E+02                                            1068200300427 
   1860.505  7.554E+02                                            1068200300428 
   1861.974  8.381E+02                                            1068200300429 
   1863.450  9.455E+02                                            1068200300430 
   1865.634  1.040E+03                                            1068200300431 
   1869.254  1.154E+03                                            1068200300432 
   1872.861  1.233E+03                                            1068200300433 
   1875.692  1.112E+03                                            1068200300434 
   1877.810  1.015E+03                                            1068200300435 
   1879.892  8.345E+02                                            1068200300436 
   1879.927  9.220E+02                                            1068200300437 
   1881.990  7.185E+02                                            1068200300438 
   1882.660  6.290E+02                                            1068200300439 
   1884.767  5.552E+02                                            1068200300440 
   1889.010  4.721E+02                                            1068200300441 
   1892.614  5.004E+02                                            1068200300442 
   1896.962  5.715E+02                                            1068200300443 
   1897.001  6.394E+02                                            1068200300444 
   1900.627  7.213E+02                                            1068200300445 
   1904.178  6.582E+02                                            1068200300446 
   1906.300  6.057E+02                                            1068200300447 
   1909.863  5.714E+02                                            1068200300448 
   1912.054  6.420E+02                                            1068200300449 
   1915.655  6.748E+02                                            1068200300450 
   1918.537  7.034E+02                                            1068200300451 
   1922.106  6.747E+02                                            1068200300452 
   1924.277  7.151E+02                                            1068200300453 
   1926.459  7.836E+02                                            1068200300454 
   1927.942  9.025E+02                                            1068200300455 
   1929.404  9.808E+02                                            1068200300456 
   1930.134  1.018E+03                                            1068200300457 
   1935.848  9.605E+02                                            1068200300458 
   1938.695  9.062E+02                                            1068200300459 
   1940.097  8.304E+02                                            1068200300460 
   1941.500  7.610E+02                                            1068200300461 
   1945.042  6.745E+02                                            1068200300462 
   1949.361  7.120E+02                                            1068200300463 
   1950.828  7.834E+02                                            1068200300464 
   1953.755  9.289E+02                                            1068200300465 
   1957.323  8.873E+02                                            1068200300466 
   1960.168  8.337E+02                                            1068200300467 
   1964.454  7.997E+02                                            1068200300468 
   1969.460  7.735E+02                                            1068200300469 
   1973.746  7.420E+02                                            1068200300470 
   1978.027  7.029E+02                                            1068200300471 
   1980.925  7.670E+02                                            1068200300472 
   1983.098  8.197E+02                                            1068200300473 
   1987.425  8.834E+02                                            1068200300474 
   1990.988  8.334E+02                                            1068200300475 
   1995.266  7.797E+02                                            1068200300476 
   1998.868  8.230E+02                                            1068200300477 
   2002.471  8.686E+02                                            1068200300478 
   2005.352  9.055E+02                                            1068200300479 
   2010.371  9.092E+02                                            1068200300480 
   2013.932  8.506E+02                                            1068200300481 
   2018.202  7.795E+02                                            1068200300482 
   2021.105  8.648E+02                                            1068200300483 
   2022.562  9.243E+02                                            1068200300484 
   2027.594  9.635E+02                                            1068200300485 
   2031.212  1.065E+03                                            1068200300486 
   2036.257  1.152E+03                                            1068200300487 
   2037.669  1.082E+03                                            1068200300488 
   2041.226  1.004E+03                                            1068200300489 
   2043.323  8.610E+02                                            1068200300490 
   2043.345  9.164E+02                                            1068200300491 
   2046.164  7.989E+02                                            1068200300492 
   2047.575  7.506E+02                                            1068200300493 
   2051.904  8.123E+02                                            1068200300494 
   2053.368  8.863E+02                                            1068200300495 
   2056.975  9.473E+02                                            1068200300496 
   2060.537  8.900E+02                                            1068200300497 
   2061.950  8.396E+02                                            1068200300498 
   2065.560  9.048E+02                                            1068200300499 
   2066.974  8.572E+02                                            1068200300500 
   2071.292  9.010E+02                                            1068200300501 
   2071.989  8.501E+02                                            1068200300502 
   2074.837  8.053E+02                                            1068200300503 
   2077.721  8.465E+02                                            1068200300504 
   2082.725  8.154E+02                                            1068200300505 
   2086.290  7.724E+02                                            1068200300506 
   2089.899  8.290E+02                                            1068200300507 
   2093.458  7.724E+02                                            1068200300508 
   2097.066  8.289E+02                                            1068200300509 
ENDDATA            491          0                                 1068200300510 
ENDSUBENT          509          0                                 1068200399999 
SUBENT        10682004   20141003                             14041068200400001 
BIB                  3          6                                 1068200400002 
REACTION   (26-FE-0(N,INL)26-FE-0,PAR,SIG,,AV)                    1068200400003 
STATUS     (TABLE) Table I, page 429.                             1068200400004 
           (DEP,10682003)                                         1068200400005 
HISTORY    (19840227A) Reaction corrected.                        1068200400006 
           (19860613A) BIB update.                                1068200400007 
           (20141020A) BP: Reaction corrected.                    1068200400008 
ENDBIB               6          0                                 1068200400009 
COMMON               1          3                                 1068200400010 
E-LVL                                                             1068200400011 
KEV                                                               1068200400012 
   846.                                                           1068200400013 
ENDCOMMON            3          0                                 1068200400014 
DATA                 3         13                                 1068200400015 
EN-MIN     EN-MAX     DATA                                        1068200400016 
KEV        KEV        MB                                          1068200400017 
       860.       900.      164.7                                 1068200400018 
       900.      1000.      234.8                                 1068200400019 
      1000.      1100.      361.5                                 1068200400020 
      1100.      1200.      405.3                                 1068200400021 
      1200.      1300.      385.6                                 1068200400022 
      1300.      1400.      487.5                                 1068200400023 
      1400.      1500.      606.4                                 1068200400024 
      1500.      1600.      716.4                                 1068200400025 
      1600.      1700.      698.6                                 1068200400026 
      1700.      1800.      595.0                                 1068200400027 
      1800.      1900.      652.0                                 1068200400028 
      1900.      2000.      763.4                                 1068200400029 
      2000.      2100.      845.9                                 1068200400030 
ENDDATA             15          0                                 1068200400031 
ENDSUBENT           30          0                                 1068200499999 
SUBENT        10682005   20141020                             14041068200500001 
BIB                  3          5                                 1068200500002 
REACTION   (26-FE-0(N,INL)26-FE-0,PAR,DA,G)                       1068200500003 
STATUS     (CURVE) Figs. 4-5, page 425.                           1068200500004 
            Continuous curves, points for digitization were       1068200500005 
            determined by compiler.                               1068200500006 
HISTORY    (20141020A) BP                                         1068200500007 
ENDBIB               5          0                                 1068200500008 
COMMON               2          3                                 1068200500009 
ANG        E                                                      1068200500010 
ADEG       KEV                                                    1068200500011 
       90.0   846.                                                1068200500012 
ENDCOMMON            3          0                                 1068200500013 
DATA                 2        551                                 1068200500014 
EN         DATA                                                   1068200500015 
KEV        MB/SR                                                  1068200500016 
    851.807  1.057E+00                                            1068200500017 
    855.831  1.163E+00                                            1068200500018 
    858.426  1.493E+00                                            1068200500019 
    861.576  2.197E+00                                            1068200500020 
    862.179  2.820E+00                                            1068200500021 
    862.333  1.241E+00                                            1068200500022 
    862.988  1.805E+00                                            1068200500023 
    865.304  3.911E+00                                            1068200500024 
    867.386  4.844E+00                                            1068200500025 
    867.461  5.790E+00                                            1068200500026 
    869.130  8.780E+00                                            1068200500027 
    870.826  1.421E+01                                            1068200500028 
    871.496  2.142E+01                                            1068200500029 
    872.131  2.972E+01                                            1068200500030 
    873.429  6.103E+01                                            1068200500031 
    874.693  3.530E+01                                            1068200500032 
    876.005  2.287E+01                                            1068200500033 
    877.293  1.396E+01                                            1068200500034 
    878.151  1.006E+01                                            1068200500035 
    878.983  6.794E+00                                            1068200500036 
    880.813  4.615E+00                                            1068200500037 
    883.579  2.718E+00                                            1068200500038 
    885.283  4.479E+00                                            1068200500039 
    886.357  1.770E+01                                            1068200500040 
    887.397  5.993E+00                                            1068200500041 
    889.601  9.936E+00                                            1068200500042 
    890.326  1.707E+01                                            1068200500043 
    891.519  2.731E+01                                            1068200500044 
    892.151  1.146E+01                                            1068200500045 
    893.548  9.085E+00                                            1068200500046 
    893.921  6.748E+00                                            1068200500047 
    894.520  2.621E+00                                            1068200500048 
    896.726  1.330E+00                                            1068200500049 
    897.949  2.285E+00                                            1068200500050 
    900.631  3.612E+00                                            1068200500051 
    904.002  2.948E+01                                            1068200500052 
    905.921  7.550E+00                                            1068200500053 
    907.778  5.475E+00                                            1068200500054 
    910.169  4.315E+00                                            1068200500055 
    912.816  6.276E+00                                            1068200500056 
    912.963  8.914E+00                                            1068200500057 
    914.562  1.144E+01                                            1068200500058 
    915.690  1.568E+01                                            1068200500059 
    916.784  1.978E+01                                            1068200500060 
    918.661  1.504E+01                                            1068200500061 
    919.520  1.084E+01                                            1068200500062 
    920.244  5.670E+00                                            1068200500063 
    920.540  3.502E+00                                            1068200500064 
    922.791  1.978E+00                                            1068200500065 
    924.034  3.564E+00                                            1068200500066 
    924.856  7.723E+00                                            1068200500067 
    925.232  5.770E+00                                            1068200500068 
    926.034  1.192E+01                                            1068200500069 
    927.805  2.307E+01                                            1068200500070 
    929.480  1.084E+01                                            1068200500071 
    930.097  4.388E+00                                            1068200500072 
    931.696  5.632E+00                                            1068200500073 
    933.246  2.109E+01                                            1068200500074 
    933.422  9.792E+00                                            1068200500075 
    935.813  2.536E+01                                            1068200500076 
    935.826  8.585E+01                                            1068200500077 
    938.523  4.280E+01                                            1068200500078 
    938.731  2.147E+01                                            1068200500079 
    939.075  1.484E+01                                            1068200500080 
    939.782  7.445E+00                                            1068200500081 
    941.439  3.355E+00                                            1068200500082 
    943.213  6.531E+00                                            1068200500083 
    945.659  1.928E+01                                            1068200500084 
    945.741  2.346E+01                                            1068200500085 
    946.386  1.014E+01                                            1068200500086 
    946.991  1.310E+01                                            1068200500087 
    948.396  3.473E+01                                            1068200500088 
    949.879  1.032E+01                                            1068200500089 
    950.534  1.501E+01                                            1068200500090 
    951.657  6.187E+00                                            1068200500091 
    952.421  3.558E+00                                            1068200500092 
    952.546  4.791E+00                                            1068200500093 
    954.629  1.817E+00                                            1068200500094 
    956.437  3.843E+00                                            1068200500095 
    956.786  2.690E+00                                            1068200500096 
    958.121  6.039E+00                                            1068200500097 
    959.314  9.662E+00                                            1068200500098 
    960.460  1.380E+01                                            1068200500099 
    961.598  1.937E+01                                            1068200500100 
    963.740  2.768E+01                                            1068200500101 
    964.581  1.914E+01                                            1068200500102 
    965.330  1.062E+01                                            1068200500103 
    966.602  6.256E+00                                            1068200500104 
    967.786  9.772E+00                                            1068200500105 
    970.941  1.455E+01                                            1068200500106 
    974.479  1.649E+01                                            1068200500107 
    979.024  1.913E+01                                            1068200500108 
    983.155  2.716E+01                                            1068200500109 
    983.405  4.923E+01                                            1068200500110 
    984.811  3.998E+01                                            1068200500111 
    986.079  2.326E+01                                            1068200500112 
    986.474  1.823E+01                                            1068200500113 
    990.671  3.022E+01                                            1068200500114 
    991.014  2.090E+01                                            1068200500115 
    993.477  1.957E+01                                            1068200500116 
    994.360  1.497E+01                                            1068200500117 
    997.568  2.527E+01                                            1068200500118 
   1001.216  3.719E+01                                            1068200500119 
   1003.751  4.138E+01                                            1068200500120 
   1005.664  3.421E+01                                            1068200500121 
   1006.079  2.811E+01                                            1068200500122 
   1006.510  2.394E+01                                            1068200500123 
   1007.934  2.026E+01                                            1068200500124 
   1009.869  1.767E+01                                            1068200500125 
   1012.760  1.401E+01                                            1068200500126 
   1016.826  1.704E+01                                            1068200500127 
   1018.744  1.426E+01                                            1068200500128 
   1021.323  1.766E+01                                            1068200500129 
   1023.263  1.558E+01                                            1068200500130 
   1025.861  2.012E+01                                            1068200500131 
   1026.408  2.266E+01                                            1068200500132 
   1027.265  1.624E+01                                            1068200500133 
   1028.151  1.250E+01                                            1068200500134 
   1030.539  9.794E+00                                            1068200500135 
   1033.652  1.318E+01                                            1068200500136 
   1035.532  1.009E+01                                            1068200500137 
   1038.079  1.156E+01                                            1068200500138 
   1038.457  8.691E+00                                            1068200500139 
   1041.197  1.575E+01                                            1068200500140 
   1042.328  2.172E+01                                            1068200500141 
   1042.955  2.959E+01                                            1068200500142 
   1046.031  3.643E+01                                            1068200500143 
   1047.430  2.906E+01                                            1068200500144 
   1048.825  2.290E+01                                            1068200500145 
   1048.877  2.595E+01                                            1068200500146 
   1050.772  2.057E+01                                            1068200500147 
   1053.697  1.773E+01                                            1068200500148 
   1055.249  2.033E+01                                            1068200500149 
   1058.279  2.249E+01                                            1068200500150 
   1061.721  2.020E+01                                            1068200500151 
   1061.806  2.472E+01                                            1068200500152 
   1063.364  2.886E+01                                            1068200500153 
   1065.411  3.289E+01                                            1068200500154 
   1068.955  3.770E+01                                            1068200500155 
   1070.357  3.025E+01                                            1068200500156 
   1071.268  2.471E+01                                            1068200500157 
   1072.197  2.104E+01                                            1068200500158 
   1073.621  1.781E+01                                            1068200500159 
   1075.723  2.314E+01                                            1068200500160 
   1076.345  3.115E+01                                            1068200500161 
   1078.455  4.120E+01                                            1068200500162 
   1081.751  2.621E+01                                            1068200500163 
   1081.889  3.635E+01                                            1068200500164 
   1082.329  3.170E+01                                            1068200500165 
   1083.691  2.313E+01                                            1068200500166 
   1084.637  2.053E+01                                            1068200500167 
   1086.052  1.697E+01                                            1068200500168 
   1088.497  1.525E+01                                            1068200500169 
   1092.409  1.283E+01                                            1068200500170 
   1094.508  1.657E+01                                            1068200500171 
   1096.094  2.064E+01                                            1068200500172 
   1096.685  2.572E+01                                            1068200500173 
   1097.260  3.093E+01                                            1068200500174 
   1099.309  3.546E+01                                            1068200500175 
   1100.736  3.020E+01                                            1068200500176 
   1101.179  2.649E+01                                            1068200500177 
   1102.626  2.366E+01                                            1068200500178 
   1105.086  2.203E+01                                            1068200500179 
   1107.051  2.063E+01                                            1068200500180 
   1111.055  2.163E+01                                            1068200500181 
   1114.569  2.309E+01                                            1068200500182 
   1115.617  2.616E+01                                            1068200500183 
   1118.047  2.267E+01                                            1068200500184 
   1118.981  1.954E+01                                            1068200500185 
   1120.522  2.187E+01                                            1068200500186 
   1121.088  2.568E+01                                            1068200500187 
   1123.125  2.858E+01                                            1068200500188 
   1125.680  3.336E+01                                            1068200500189 
   1127.121  2.944E+01                                            1068200500190 
   1130.528  2.433E+01                                            1068200500191 
   1131.974  2.173E+01                                            1068200500192 
   1134.375  1.754E+01                                            1068200500193 
   1136.950  2.147E+01                                            1068200500194 
   1142.533  2.755E+01                                            1068200500195 
   1151.831  1.859E+01                                            1068200500196 
   1154.163  1.278E+01                                            1068200500197 
   1155.583  1.069E+01                                            1068200500198 
   1158.506  9.158E+00                                            1068200500199 
   1160.605  1.183E+01                                            1068200500200 
   1162.640  1.308E+01                                            1068200500201 
   1164.181  1.465E+01                                            1068200500202 
   1167.257  1.803E+01                                            1068200500203 
   1167.817  2.092E+01                                            1068200500204 
   1169.371  2.413E+01                                            1068200500205 
   1171.428  2.816E+01                                            1068200500206 
   1172.865  2.456E+01                                            1068200500207 
   1173.801  2.129E+01                                            1068200500208 
   1174.745  1.879E+01                                            1068200500209 
   1176.679  1.639E+01                                            1068200500210 
   1177.267  2.030E+01                                            1068200500211 
   1179.322  2.355E+01                                            1068200500212 
   1179.894  2.815E+01                                            1068200500213 
   1181.448  3.247E+01                                            1068200500214 
   1184.855  2.683E+01                                            1068200500215 
   1187.352  2.731E+01                                            1068200500216 
   1190.338  2.715E+01                                            1068200500217 
   1191.795  2.483E+01                                            1068200500218 
   1193.154  1.800E+01                                            1068200500219 
   1193.224  2.127E+01                                            1068200500220 
   1195.021  1.337E+01                                            1068200500221 
   1197.584  1.589E+01                                            1068200500222 
   1198.640  1.832E+01                                            1068200500223 
   1200.214  2.216E+01                                            1068200500224 
   1200.742  2.380E+01                                            1068200500225 
   1202.684  2.113E+01                                            1068200500226 
   1204.628  1.887E+01                                            1068200500227 
   1205.552  1.588E+01                                            1068200500228 
   1207.639  1.990E+01                                            1068200500229 
   1208.179  2.202E+01                                            1068200500230 
   1210.712  2.436E+01                                            1068200500231 
   1212.654  2.163E+01                                            1068200500232 
   1214.071  1.798E+01                                            1068200500233 
   1215.000  1.531E+01                                            1068200500234 
   1216.434  1.328E+01                                            1068200500235 
   1217.900  1.243E+01                                            1068200500236 
   1220.440  1.400E+01                                            1068200500237 
   1220.730  2.792E+01                                            1068200500238 
   1221.036  1.766E+01                                            1068200500239 
   1221.599  2.061E+01                                            1068200500240 
   1221.666  2.420E+01                                            1068200500241 
   1223.763  3.106E+01                                            1068200500242 
   1223.833  3.669E+01                                            1068200500243 
   1224.901  4.360E+01                                            1068200500244 
   1225.474  5.212E+01                                            1068200500245 
   1227.506  5.731E+01                                            1068200500246 
   1229.919  4.765E+01                                            1068200500247 
   1231.358  4.181E+01                                            1068200500248 
   1231.799  3.646E+01                                            1068200500249 
   1233.235  3.179E+01                                            1068200500250 
   1235.648  2.644E+01                                            1068200500251 
   1238.641  2.675E+01                                            1068200500252 
   1241.589  2.432E+01                                            1068200500253 
   1242.065  2.305E+01                                            1068200500254 
   1243.016  2.071E+01                                            1068200500255 
   1246.950  1.838E+01                                            1068200500256 
   1249.002  2.120E+01                                            1068200500257 
   1252.030  2.331E+01                                            1068200500258 
   1254.986  2.157E+01                                            1068200500259 
   1257.944  2.008E+01                                            1068200500260 
   1258.888  1.772E+01                                            1068200500261 
   1262.757  1.348E+01                                            1068200500262 
   1264.319  1.582E+01                                            1068200500263 
   1265.920  2.043E+01                                            1068200500264 
   1266.959  2.261E+01                                            1068200500265 
   1268.991  2.486E+01                                            1068200500266 
   1270.412  2.092E+01                                            1068200500267 
   1271.314  1.669E+01                                            1068200500268 
   1271.361  1.868E+01                                            1068200500269 
   1274.723  1.387E+01                                            1068200500270 
   1277.372  2.030E+01                                            1068200500271 
   1277.492  2.701E+01                                            1068200500272 
   1281.016  2.952E+01                                            1068200500273 
   1282.545  3.208E+01                                            1068200500274 
   1283.463  2.668E+01                                            1068200500275 
   1284.404  2.340E+01                                            1068200500276 
   1287.823  1.993E+01                                            1068200500277 
   1291.182  1.471E+01                                            1068200500278 
   1291.294  1.922E+01                                            1068200500279 
   1291.917  2.588E+01                                            1068200500280 
   1295.000  3.244E+01                                            1068200500281 
   1296.522  3.463E+01                                            1068200500282 
   1299.567  3.970E+01                                            1068200500283 
   1302.080  4.188E+01                                            1068200500284 
   1304.094  4.417E+01                                            1068200500285 
   1306.026  3.829E+01                                            1068200500286 
   1306.460  3.281E+01                                            1068200500287 
   1307.348  2.540E+01                                            1068200500288 
   1308.745  2.014E+01                                            1068200500289 
   1309.173  1.705E+01                                            1068200500290 
   1312.542  1.289E+01                                            1068200500291 
   1313.140  1.635E+01                                            1068200500292 
   1316.233  2.099E+01                                            1068200500293 
   1319.234  2.162E+01                                            1068200500294 
   1321.734  2.213E+01                                            1068200500295 
   1324.684  2.024E+01                                            1068200500296 
   1326.634  1.829E+01                                            1068200500297 
   1329.715  2.279E+01                                            1068200500298 
   1330.793  2.773E+01                                            1068200500299 
   1332.845  3.198E+01                                            1068200500300 
   1336.881  3.623E+01                                            1068200500301 
   1338.821  3.197E+01                                            1068200500302 
   1340.268  2.855E+01                                            1068200500303 
   1341.199  2.446E+01                                            1068200500304 
   1342.626  2.083E+01                                            1068200500305 
   1343.965  1.440E+01                                            1068200500306 
   1345.176  2.402E+01                                            1068200500307 
   1349.357  3.842E+01                                            1068200500308 
   1350.921  4.538E+01                                            1068200500309 
   1354.843  3.910E+01                                            1068200500310 
   1356.885  4.404E+01                                            1068200500311 
   1359.290  3.597E+01                                            1068200500312 
   1360.739  3.231E+01                                            1068200500313 
   1364.148  2.687E+01                                            1068200500314 
   1367.228  3.347E+01                                            1068200500315 
   1371.230  3.489E+01                                            1068200500316 
   1374.258  3.837E+01                                            1068200500317 
   1376.295  4.270E+01                                            1068200500318 
   1378.332  4.751E+01                                            1068200500319 
   1380.934  6.209E+01                                            1068200500320 
   1383.995  7.376E+01                                            1068200500321 
   1386.508  7.781E+01                                            1068200500322 
   1386.931  6.509E+01                                            1068200500323 
   1387.312  4.921E+01                                            1068200500324 
   1391.524  2.588E+01                                            1068200500325 
   1391.624  3.283E+01                                            1068200500326 
   1392.879  1.855E+01                                            1068200500327 
   1393.832  1.676E+01                                            1068200500328 
   1396.253  1.419E+01                                            1068200500329 
   1398.790  1.588E+01                                            1068200500330 
   1402.887  3.706E+01                                            1068200500331 
   1406.282  4.038E+01                                            1068200500332 
   1411.817  3.400E+01                                            1068200500333 
   1413.689  4.075E+01                                            1068200500334 
   1416.861  3.722E+01                                            1068200500335 
   1419.852  2.945E+01                                            1068200500336 
   1423.416  3.668E+01                                            1068200500337 
   1426.618  3.430E+01                                            1068200500338 
   1432.261  3.147E+01                                            1068200500339 
   1437.342  3.545E+01                                            1068200500340 
   1440.490  3.176E+01                                            1068200500341 
   1443.093  3.544E+01                                            1068200500342 
   1444.024  3.862E+01                                            1068200500343 
   1445.781  4.228E+01                                            1068200500344 
   1446.046  5.216E+01                                            1068200500345 
   1446.723  4.651E+01                                            1068200500346 
   1449.435  5.656E+01                                            1068200500347 
   1451.545  4.268E+01                                            1068200500348 
   1451.683  4.763E+01                                            1068200500349 
   1453.032  3.769E+01                                            1068200500350 
   1456.893  3.099E+01                                            1068200500351 
   1461.997  3.558E+01                                            1068200500352 
   1467.132  4.184E+01                                            1068200500353 
   1471.295  4.367E+01                                            1068200500354 
   1474.406  3.802E+01                                            1068200500355 
   1475.911  3.407E+01                                            1068200500356 
   1478.256  3.096E+01                                            1068200500357 
   1478.533  3.856E+01                                            1068200500358 
   1480.399  4.601E+01                                            1068200500359 
   1483.014  5.183E+01                                            1068200500360 
   1488.941  5.951E+01                                            1068200500361 
   1491.291  5.434E+01                                            1068200500362 
   1494.499  5.107E+01                                            1068200500363 
   1496.838  4.619E+01                                            1068200500364 
   1498.144  3.536E+01                                            1068200500365 
   1498.306  4.022E+01                                            1068200500366 
   1500.428  3.064E+01                                            1068200500367 
   1502.718  2.668E+01                                            1068200500368 
   1505.328  2.991E+01                                            1068200500369 
   1507.943  3.370E+01                                            1068200500370 
   1509.749  3.833E+01                                            1068200500371 
   1511.585  4.465E+01                                            1068200500372 
   1514.123  4.728E+01                                            1068200500373 
   1517.295  4.317E+01                                            1068200500374 
   1519.022  4.615E+01                                            1068200500375 
   1521.584  4.981E+01                                            1068200500376 
   1523.414  5.774E+01                                            1068200500377 
   1524.603  7.725E+01                                            1068200500378 
   1527.775  7.055E+01                                            1068200500379 
   1530.047  6.055E+01                                            1068200500380 
   1533.752  4.397E+01                                            1068200500381 
   1533.914  5.002E+01                                            1068200500382 
   1535.275  3.997E+01                                            1068200500383 
   1539.220  3.513E+01                                            1068200500384 
   1543.503  4.034E+01                                            1068200500385 
   1546.994  4.743E+01                                            1068200500386 
   1549.285  4.130E+01                                            1068200500387 
   1550.789  3.700E+01                                            1068200500388 
   1552.318  3.379E+01                                            1068200500389 
   1553.841  3.072E+01                                            1068200500390 
   1556.451  3.444E+01                                            1068200500391 
   1557.441  3.936E+01                                            1068200500392 
   1558.401  4.393E+01                                            1068200500393 
   1561.814  4.855E+01                                            1068200500394 
   1564.466  5.628E+01                                            1068200500395 
   1566.750  4.877E+01                                            1068200500396 
   1569.028  4.206E+01                                            1068200500397 
   1569.717  3.787E+01                                            1068200500398 
   1573.633  3.250E+01                                            1068200500399 
   1575.397  3.575E+01                                            1068200500400 
   1578.749  3.767E+01                                            1068200500401 
   1582.966  4.104E+01                                            1068200500402 
   1586.168  3.839E+01                                            1068200500403 
   1590.247  3.748E+01                                            1068200500404 
   1592.790  3.987E+01                                            1068200500405 
   1594.608  4.578E+01                                            1068200500406 
   1595.538  4.989E+01                                            1068200500407 
   1600.600  5.540E+01                                            1068200500408 
   1603.754  4.987E+01                                            1068200500409 
   1605.307  4.642E+01                                            1068200500410 
   1611.125  4.891E+01                                            1068200500411 
   1612.883  5.355E+01                                            1068200500412 
   1615.517  6.120E+01                                            1068200500413 
   1617.807  5.328E+01                                            1068200500414 
   1619.251  4.552E+01                                            1068200500415 
   1620.726  3.982E+01                                            1068200500416 
   1622.188  3.451E+01                                            1068200500417 
   1627.227  3.760E+01                                            1068200500418 
   1631.251  3.516E+01                                            1068200500419 
   1634.380  3.105E+01                                            1068200500420 
   1637.522  2.769E+01                                            1068200500421 
   1639.861  2.505E+01                                            1068200500422 
   1644.053  2.677E+01                                            1068200500423 
   1645.056  3.089E+01                                            1068200500424 
   1646.904  3.633E+01                                            1068200500425 
   1650.347  4.112E+01                                            1068200500426 
   1653.035  4.906E+01                                            1068200500427 
   1657.216  5.194E+01                                            1068200500428 
   1661.270  4.975E+01                                            1068200500429 
   1665.300  4.675E+01                                            1068200500430 
   1667.081  5.217E+01                                            1068200500431 
   1671.262  5.523E+01                                            1068200500432 
   1673.793  5.820E+01                                            1068200500433 
   1676.083  5.068E+01                                            1068200500434 
   1676.766  4.541E+01                                            1068200500435 
   1677.468  4.127E+01                                            1068200500436 
   1679.800  3.715E+01                                            1068200500437 
   1683.709  3.174E+01                                            1068200500438 
   1691.219  3.474E+01                                            1068200500439 
   1693.804  3.821E+01                                            1068200500440 
   1697.241  4.305E+01                                            1068200500441 
   1702.334  4.896E+01                                            1068200500442 
   1705.494  4.428E+01                                            1068200500443 
   1706.987  3.930E+01                                            1068200500444 
   1711.252  4.448E+01                                            1068200500445 
   1713.554  3.910E+01                                            1068200500446 
   1717.807  4.384E+01                                            1068200500447 
   1722.586  3.890E+01                                            1068200500448 
   1723.275  3.502E+01                                            1068200500449 
   1728.012  3.006E+01                                            1068200500450 
   1733.044  3.259E+01                                            1068200500451 
   1737.225  3.450E+01                                            1068200500452 
   1741.393  3.618E+01                                            1068200500453 
   1743.133  3.905E+01                                            1068200500454 
   1746.649  4.681E+01                                            1068200500455 
   1749.318  5.505E+01                                            1068200500456 
   1752.485  5.003E+01                                            1068200500457 
   1757.264  4.440E+01                                            1068200500458 
   1761.282  4.132E+01                                            1068200500459 
   1764.478  3.846E+01                                            1068200500460 
   1768.496  3.580E+01                                            1068200500461 
   1770.037  3.301E+01                                            1068200500462 
   1772.393  3.029E+01                                            1068200500463 
   1774.277  3.665E+01                                            1068200500464 
   1778.530  4.109E+01                                            1068200500465 
   1778.663  4.564E+01                                            1068200500466 
   1780.445  5.093E+01                                            1068200500467 
   1783.036  5.630E+01                                            1068200500468 
   1783.683  4.902E+01                                            1068200500469 
   1784.246  3.992E+01                                            1068200500470 
   1785.194  4.413E+01                                            1068200500471 
   1786.590  3.629E+01                                            1068200500472 
   1788.119  3.314E+01                                            1068200500473 
   1790.421  2.913E+01                                            1068200500474 
   1793.563  2.597E+01                                            1068200500475 
   1797.515  2.294E+01                                            1068200500476 
   1799.381  2.737E+01                                            1068200500477 
   1800.395  3.188E+01                                            1068200500478 
   1804.745  3.858E+01                                            1068200500479 
   1810.370  3.489E+01                                            1068200500480 
   1815.209  3.248E+01                                            1068200500481 
   1819.994  2.896E+01                                            1068200500482 
   1824.247  3.246E+01                                            1068200500483 
   1829.219  3.356E+01                                            1068200500484 
   1838.251  3.339E+01                                            1068200500485 
   1841.676  3.725E+01                                            1068200500486 
   1844.280  4.157E+01                                            1068200500487 
   1846.050  4.595E+01                                            1068200500488 
   1847.850  5.202E+01                                            1068200500489 
   1852.079  5.721E+01                                            1068200500490 
   1856.090  5.300E+01                                            1068200500491 
   1859.172  4.506E+01                                            1068200500492 
   1860.731  4.214E+01                                            1068200500493 
   1863.286  4.526E+01                                            1068200500494 
   1866.736  5.148E+01                                            1068200500495 
   1868.493  5.636E+01                                            1068200500496 
   1868.662  6.442E+01                                            1068200500497 
   1872.740  6.289E+01                                            1068200500498 
   1875.085  5.716E+01                                            1068200500499 
   1876.607  5.195E+01                                            1068200500500 
   1879.761  4.677E+01                                            1068200500501 
   1882.813  3.882E+01                                            1068200500502 
   1884.294  3.413E+01                                            1068200500503 
   1887.478  3.146E+01                                            1068200500504 
   1892.239  2.752E+01                                            1068200500505 
   1895.646  3.027E+01                                            1068200500506 
   1897.585  3.824E+01                                            1068200500507 
   1898.262  3.410E+01                                            1068200500508 
   1903.565  4.584E+01                                            1068200500509 
   1905.124  4.287E+01                                            1068200500510 
   1909.112  3.896E+01                                            1068200500511 
   1910.665  3.627E+01                                            1068200500512 
   1913.334  4.265E+01                                            1068200500513 
   1918.078  3.678E+01                                            1068200500514 
   1920.699  4.163E+01                                            1068200500515 
   1926.559  4.536E+01                                            1068200500516 
   1928.371  5.184E+01                                            1068200500517 
   1929.331  5.785E+01                                            1068200500518 
   1931.101  6.394E+01                                            1068200500519 
   1932.871  7.068E+01                                            1068200500520 
   1936.278  7.774E+01                                            1068200500521 
   1940.236  6.899E+01                                            1068200500522 
   1943.378  6.151E+01                                            1068200500523 
   1945.590  5.034E+01                                            1068200500524 
   1945.722  5.591E+01                                            1068200500525 
   1948.720  4.446E+01                                            1068200500526 
   1950.483  4.891E+01                                            1068200500527 
   1953.081  5.431E+01                                            1068200500528 
   1955.690  6.090E+01                                            1068200500529 
   1961.321  5.534E+01                                            1068200500530 
   1967.726  4.841E+01                                            1068200500531 
   1976.812  5.027E+01                                            1068200500532 
   1978.269  4.335E+01                                            1068200500533 
   1983.385  5.026E+01                                            1068200500534 
   1986.853  5.798E+01                                            1068200500535 
   1994.109  5.194E+01                                            1068200500536 
   1998.163  4.975E+01                                            1068200500537 
   2004.083  5.684E+01                                            1068200500538 
   2005.853  6.283E+01                                            1068200500539 
   2010.735  6.047E+01                                            1068200500540 
   2014.771  5.709E+01                                            1068200500541 
   2016.324  5.314E+01                                            1068200500542 
   2021.079  4.627E+01                                            1068200500543 
   2022.879  5.237E+01                                            1068200500544 
   2027.162  6.014E+01                                            1068200500545 
   2028.098  6.584E+01                                            1068200500546 
   2031.475  7.072E+01                                            1068200500547 
   2035.661  7.523E+01                                            1068200500548 
   2038.223  8.119E+01                                            1068200500549 
   2043.002  7.204E+01                                            1068200500550 
   2043.679  6.425E+01                                            1068200500551 
   2044.356  5.729E+01                                            1068200500552 
   2045.879  5.207E+01                                            1068200500553 
   2048.991  4.534E+01                                            1068200500554 
   2053.249  5.107E+01                                            1068200500555 
   2055.829  5.591E+01                                            1068200500556 
   2057.581  6.092E+01                                            1068200500557 
   2060.208  6.929E+01                                            1068200500558 
   2063.362  6.238E+01                                            1068200500559 
   2068.172  5.669E+01                                            1068200500560 
   2073.905  5.587E+01                                            1068200500561 
   2079.584  5.275E+01                                            1068200500562 
   2082.768  4.863E+01                                            1068200500563 
   2089.221  4.419E+01                                            1068200500564 
   2091.855  5.050E+01                                            1068200500565 
   2094.434  5.529E+01                                            1068200500566 
   2097.739  5.608E+01                                            1068200500567 
ENDDATA            553          0                                 1068200500568 
ENDSUBENT          567          0                                 1068200599999 
ENDENTRY             5          0                                 1068299999999 
