ENTRY            10746   20091105                             13601074600000001 
SUBENT        10746001   20091105                             13601074600100001 
BIB                 12         17                                 1074600100002 
INSTITUTE  (1USAORL)                                              1074600100003 
REFERENCE  (J,PR/C,7,780,197302)                                  1074600100004 
AUTHOR     (O.A.Wasson,B.J.Allen)                                 1074600100005 
TITLE      P-Wave Resonances in 111Cd(n,gamma)112Cd               1074600100006 
FACILITY   (LINAC,1USAORL) ORELA                                  1074600100007 
INC-SOURCE (EVAP) Electrons on water-cooled tantalum target.      1074600100008 
SAMPLE     The sample consisted of 16.6 g of Cd enriched to       1074600100009 
            97.5% in 111Cd.                                       1074600100010 
METHOD     (TOF) Time of flight                                   1074600100011 
DETECTOR   (SCIN) Liquid-scintillator gamma-ray detector.         1074600100012 
MONITOR    Detector efficiency determined using saturated         1074600100013 
            resonance technique on the 4.9-eV Au resonance.       1074600100014 
CORRECTION Corrections made for self-shielding and multiple       1074600100015 
            scattering.                                           1074600100016 
HISTORY    (19780615C)                                            1074600100017 
           (20091105A) VM:Updated to new date formats,lower case. 1074600100018 
                       BIB updates.                               1074600100019 
ENDBIB              17          0                                 1074600100020 
NOCOMMON             0          0                                 1074600100021 
ENDSUBENT           20          0                                 1074600199999 
SUBENT        10746002   20091105                             13601074600200001 
BIB                  5         11                                 1074600200002 
REACTION  1(48-CD-111(N,0),,EN)                                   1074600200003 
          2(48-CD-111(N,EL),,WID/STR)                             1074600200004 
          3(48-CD-111(N,EL),,WID/RED)                             1074600200005 
          4(48-CD-111(N,0),,L)                                    1074600200006 
ANALYSIS   Resonance widths obtained from capture yields, momenta 1074600200007 
            determined from neutron widths and gamma spectra.     1074600200008 
           The reduced neutron widths of the unassigned           1074600200009 
            resonances are arbitrarily assigned as s-wave.        1074600200010 
ERR-ANALYS No information on uncertainties.                       1074600200011 
STATUS     (TABLE) Data taken from Table I in reference.          1074600200012 
HISTORY   2(20001105A) Reaction updated.                          1074600200013 
ENDBIB              11          0                                 1074600200014 
NOCOMMON             0          0                                 1074600200015 
DATA                 5        140                                 1074600200016 
DATA      1DATA      2DATA      3DATA      4MOMENTUM L            1074600200017 
KEV        EV         EV         NO-DIM     NO-DIM                1074600200018 
   0.276     0.0084     0.51        0.0                           1074600200019 
   0.287     0.00034    0.032       1.0                           1074600200020 
   0.313     0.0017     0.10                   0.                 1074600200021 
   0.314     0.0004     0.02                   0.                 1074600200022 
   0.332     0.0042     0.23        0.0                           1074600200023 
   0.337     0.0008     0.04                   0.                 1074600200024 
   0.357     0.020      1.06        0.0                           1074600200025 
   0.390     0.0109     0.55        0.0                           1074600200026 
   0.411     0.0009     0.049       1.0                           1074600200027 
   0.424     0.0002     0.010       1.0                           1074600200028 
   0.439     0.0050     0.24        0.0                           1074600200029 
   0.444     0.0003     0.01                   0.                 1074600200030 
   0.454     0.0002     0.01                   0.                 1074600200031 
   0.467     0.0005     0.019       1.0                           1074600200032 
   0.479     0.0024     0.11                   0.                 1074600200033 
   0.484     0.0008     0.04                   0.                 1074600200034 
   0.485     0.0012     0.049       1.0                           1074600200035 
   0.519     0.0003     0.02                   0.                 1074600200036 
   0.531     0.0008     0.03                   0.                 1074600200037 
   0.542     0.0115     0.49        0.0                           1074600200038 
   0.545     0.0008     0.03                   0.                 1074600200039 
   0.549     0.0028     0.12                   0.                 1074600200040 
   0.553     0.0001     0.005       1.0                           1074600200041 
   0.565     0.0001     0.004       1.0                           1074600200042 
   0.569     0.0006     0.03                   0.                 1074600200043 
   0.577     0.0166     0.69        0.0                           1074600200044 
   0.584     0.0004     0.02                   0.                 1074600200045 
   0.600     0.0009     0.04                   0.                 1074600200046 
   0.605     0.0148     0.60        0.0                           1074600200047 
   0.608     0.0002     0.01                   0.                 1074600200048 
   0.624     0.0181     0.72        0.0                           1074600200049 
   0.655     0.0009     0.04                   0.                 1074600200050 
   0.672     0.0013     0.05                   0.                 1074600200051 
   0.687     0.0001     0.004                  0.                 1074600200052 
   0.690     0.0017     0.06                   0.                 1074600200053 
   0.708     0.0022     0.08                   0.                 1074600200054 
   0.738     0.0094     0.35        0.0                           1074600200055 
   0.741     0.0009     0.019       1.0                           1074600200056 
   0.766     0.0087     0.31        0.0                           1074600200057 
   0.785     0.0010     0.04                   0.                 1074600200058 
   0.793     0.0194     0.69        0.0                           1074600200059 
   0.811     0.0205     0.72        0.0                           1074600200060 
   0.838     0.0002     0.007                  0.                 1074600200061 
   0.845     0.0004     0.01                   0.                 1074600200062 
   0.860     0.0007     0.013       1.0                           1074600200063 
   0.863     0.0069     0.23                   0.                 1074600200064 
   0.878     0.0023     0.08                   0.                 1074600200065 
   0.880     0.0149     0.50        0.0                           1074600200066 
   0.887     0.0072     0.24                   0.                 1074600200067 
   0.902     0.0007     0.02                   0.                 1074600200068 
   0.906     0.0094     0.31        0.0                           1074600200069 
   0.911     0.0007     0.02                   0.                 1074600200070 
   0.927     0.0021     0.07                   0.                 1074600200071 
   0.931     0.0018     0.06                   0.                 1074600200072 
   0.963     0.0009     0.03                   0.                 1074600200073 
   0.968     0.0196     0.63        0.0                           1074600200074 
   0.972     0.0006     0.02                   0.                 1074600200075 
   0.994     0.0014     0.04                   0.                 1074600200076 
   1.006     0.0024     0.08                   0.                 1074600200077 
   1.019     0.0004     0.01                   0.                 1074600200078 
   1.026     0.0027     0.08        0.0                           1074600200079 
   1.038     0.0009     0.012       1.0                           1074600200080 
   1.044     0.0081     0.29                   0.                 1074600200081 
   1.051     0.0091     0.28                   0.                 1074600200082 
   1.060     0.0011     0.03                   0.                 1074600200083 
   1.071     0.0011     0.002       1.0                           1074600200084 
   1.085     0.0005     0.02                   0.                 1074600200085 
   1.100     0.0019     0.003       1.0                           1074600200086 
   1.118     0.0004     0.01                   0.                 1074600200087 
   1.141     0.0010     0.03                   0.                 1074600200088 
   1.152     0.0034     0.10                   0.                 1074600200089 
   1.160     0.0013     0.04                   0.                 1074600200090 
   1.175     0.0006     0.02                   0.                 1074600200091 
   1.194     0.0010     0.03                   0.                 1074600200092 
   1.206     0.0007     0.02                   0.                 1074600200093 
   1.220     0.0228     0.65        0.0                           1074600200094 
   1.223     0.0031     0.032       1.0                           1074600200095 
   1.240     0.0048     0.14                   0.                 1074600200096 
   1.256     0.0263     0.74        0.0                           1074600200097 
   1.265     0.0131     0.37                   0.                 1074600200098 
   1.293     0.0068     0.19                   0.                 1074600200099 
   1.312     0.0116     0.32                   0.                 1074600200100 
   1.341     0.0125     0.34                   0.                 1074600200101 
   1.354     0.0016     0.04                   0.                 1074600200102 
   1.366     0.0016     0.04                   0.                 1074600200103 
   1.376     0.0090     0.24                   0.                 1074600200104 
   1.390     0.0016     0.04                   0.                 1074600200105 
   1.403     0.0214     0.57        0.0                           1074600200106 
   1.407     0.0129     0.34                   0.                 1074600200107 
   1.427     0.0011     0.03                   0.                 1074600200108 
   1.429     0.0028     0.07                   0.                 1074600200109 
   1.453     0.0067     0.18                   0.                 1074600200110 
   1.468     0.0016     0.04                   0.                 1074600200111 
   1.495     0.0010     0.03                   0.                 1074600200112 
   1.513     0.0003     0.008                  0.                 1074600200113 
   1.528     0.0572     1.46        0.0                           1074600200114 
   1.542     0.0030     0.08                   0.                 1074600200115 
   1.555     0.0004     0.01                   0.                 1074600200116 
   1.570     0.0082     0.20                   0.                 1074600200117 
   1.586     0.0388     0.97        0.0                           1074600200118 
   1.602     0.0240     0.60        0.0                           1074600200119 
   1.622     0.0146     0.36                   0.                 1074600200120 
   1.637     0.0342     0.85        0.0                           1074600200121 
   1.660     0.0253     0.62        0.0                           1074600200122 
   1.670     0.0032     0.08                   0.                 1074600200123 
   1.693     0.0018     0.04                   0.                 1074600200124 
   1.705     0.0021     0.05                   0.                 1074600200125 
   1.708     0.0068     0.16                   0.                 1074600200126 
   1.748     0.0300     0.72        0.0                           1074600200127 
   1.771     0.0077     0.18                   0.                 1074600200128 
   1.781     0.0015     0.03                   0.                 1074600200129 
   1.793     0.0303     0.72        0.0                           1074600200130 
   1.796     0.0030     0.07                   0.                 1074600200131 
   1.826     0.0323     0.76        0.0                           1074600200132 
   1.832     0.0323     0.76        0.0                           1074600200133 
   1.876     0.0023     0.05                   0.                 1074600200134 
   1.889     0.0343     0.79        0.0                           1074600200135 
   1.925     0.0051     0.12                   0.                 1074600200136 
   1.940     0.0448     1.02        0.0                           1074600200137 
   1.958     0.0050     0.11                   0.                 1074600200138 
   1.984     0.0041     0.09                   0.                 1074600200139 
   2.011     0.0009     0.02                   0.                 1074600200140 
   2.029     0.0286     0.63        0.0                           1074600200141 
   2.050     0.0040     0.09                   0.                 1074600200142 
   2.071     0.0005     0.01                   0.                 1074600200143 
   2.090     0.0111     0.24                   0.                 1074600200144 
   2.095     0.0031     0.07                   0.                 1074600200145 
   2.111     0.0050     0.11                   0.                 1074600200146 
   2.117     0.0107     0.23                   0.                 1074600200147 
   2.125     0.0023     0.05                   0.                 1074600200148 
   2.146     0.0289     0.62        0.0                           1074600200149 
   2.149     0.0458     0.99        0.0                           1074600200150 
   2.164     0.0105     0.23                   0.                 1074600200151 
   2.179     0.0096     0.21                   0.                 1074600200152 
   2.208     0.0024     0.05                   0.                 1074600200153 
   2.212     0.0077     0.16                   0.                 1074600200154 
   2.242     0.0140     0.30                   0.                 1074600200155 
   2.275     0.0021     0.04                   0.                 1074600200156 
   2.291     0.0032     0.07                   0.                 1074600200157 
   2.301     0.0184     0.38                   0.                 1074600200158 
ENDDATA            142          0                                 1074600200159 
ENDSUBENT          158          0                                 1074600299999 
SUBENT        10746003   20091105                             13601074600300001 
BIB                  5          6                                 1074600300002 
REACTION   (48-CD-111(N,EL),,STF)                                 1074600300003 
ANALYSIS   For s-wave strength function all resonances included   1074600300004 
            except the 13 definite p-waves.                       1074600300005 
ERR-ANALYS (DATA-ERR) No information on source of uncertainties.  1074600300006 
STATUS     (TABLE) Data taken from reference text.                1074600300007 
HISTORY    (20091105A) Energy heading updated.                    1074600300008 
ENDBIB               6          0                                 1074600300009 
NOCOMMON             0          0                                 1074600300010 
DATA                 6          2                                 1074600300011 
EN-RES-MIN EN-RES-MAX MOMENTUM L DATA       DATA-MIN   DATA-ERR   1074600300012 
KEV        KEV        NO-DIM     NO-DIM     NO-DIM     NO-DIM     1074600300013 
   0.270      2.301      0.        0.15  -04              0.02 -041074600300014 
   0.287      1.223      1.                    0.9  -04   0.3  -041074600300015 
ENDDATA              4          0                                 1074600300016 
ENDSUBENT           15          0                                 1074600399999 
SUBENT        10746004   20091105                             13601074600400001 
BIB                  5          5                                 1074600400002 
REACTION   (48-CD-111(N,0),,D)                                    1074600400003 
ANALYSIS   Level spacing determined from 150 resonances           1074600400004 
ERR-ANALYS No information on uncertainties.                       1074600400005 
STATUS     (TABLE) Data taken from reference text.                1074600400006 
HISTORY    (20091105A) Energy heading updated.                    1074600400007 
ENDBIB               5          0                                 1074600400008 
NOCOMMON             0          0                                 1074600400009 
DATA                 3          1                                 1074600400010 
EN-RES-MIN EN-RES-MAX DATA                                        1074600400011 
KEV        KEV        EV                                          1074600400012 
   0.270      2.301     13.5                                      1074600400013 
ENDDATA              3          0                                 1074600400014 
ENDSUBENT           13          0                                 1074600499999 
ENDENTRY             4          0                                 1074699999999 
