ENTRY            10850   20200116                             146210850  0    1 
SUBENT        10850001   20200116                             146210850  1    1 
BIB                 13         35                                 10850  1    2 
INSTITUTE  (1USAANL)                                              10850  1    3 
REFERENCE  (J,NSE,77,256,1981)                                    10850  1    4 
AUTHOR     (D.L.Smith,J.W.Meadows,J.F.Whalen)                     10850  1    5 
TITLE      Cross sections for F-19(n,p)O-19 and F-19(n,alpha)N-16 10850  1    6 
                 from threshold to 9-MeV.                         10850  1    7 
FACILITY   (DYNAM,1USAANL) Argonne National Laboratory fast       10850  1    8 
            neutron generator                                     10850  1    9 
INC-SOURCE (P-LI7) Protons on lithium, neutron energy below 5-MeV 10850  1   10 
           (D-D) Deuterons on deuterium gas, neutron energy above 10850  1   11 
            5-MeV                                                 10850  1   12 
SAMPLE     Solid cylinders of teflon (CF2). Masses of 42.4-grams  10850  1   13 
            and 93.2-grams.                                       10850  1   14 
DETECTOR   (FISCH) Uranium fission chamber to measure neutron     10850  1   15 
            production when beam is on target.                    10850  1   16 
           (GELI) Coaxial germanium-lithium detector with massive 10850  1   17 
            shield used to detect decay of reaction products.     10850  1   18 
            Placed 90-degrees from beam line.                     10850  1   19 
MONITOR    Chlorine capture gammas used to measure GeLi detector  10850  1   20 
            efficiency.                                           10850  1   21 
          2(92-U-238(N,F),,SIG) Used as flux monitor. Values taken10850  1   22 
            from ENDF/B-V.                                        10850  1   23 
METHOD     (ACTIV) Cyclic activation method. Reaction product     10850  1   24 
            decays measured during off pulses of beam. Post       10850  1   25 
            acceleration pulsing of proton beam used.             10850  1   26 
CORRECTION Corrected for-                                         10850  1   27 
            -geometry                                             10850  1   28 
            -neutron source characteristics                       10850  1   29 
            -target characteristics                               10850  1   30 
            -absorption and multiple scattering of neutrons       10850  1   31 
            -absorption of gammas                                 10850  1   32 
            -decay of reaction products                           10850  1   33 
STATUS     (APRVD) Approved by J.W.Meadows, 81/4/28.              10850  1   34 
HISTORY    (19810324C)                                            10850  1   35 
           (20200111U) OS. ERR-ANALYS and STATUS updated,         10850  1   36 
            converted to lower case, minor BIB updates.           10850  1   37 
ENDBIB              35          0                                 10850  1   38 
NOCOMMON             0          0                                 10850  1   39 
ENDSUBENT           38          0                                 10850  199999 
SUBENT        10850002   20200116                             146210850  2    1 
BIB                  5         19                                 10850  2    2 
REACTION  1((9-F-19(N,P)8-O-19,,SIG)/(92-U-238(N,F),,SIG))        10850  2    3 
          2(9-F-19(N,P)8-O-19,,SIG)                               10850  2    4 
DECAY-DATA (8-O-19,26.91SEC,DG,1356.,0.503)                       10850  2    5 
ERR-ANALYS (ERR-T) Errors include:                                10850  2    6 
           (ERR-1,3.,85.) Determination of detector counts,       10850  2    7 
            3-85%                                                 10850  2    8 
           (ERR-2) Geometric effects, 3%                          10850  2    9 
           (ERR-3) Neutron source characteristics, 3%             10850  2   10 
           (ERR-4) Gamma detector efficiency, 4%                  10850  2   11 
           (ERR-5) Mass of uranium deposit, 1%                    10850  2   12 
           (ERR-6) Gamma absorption in sample, 1%                 10850  2   13 
           (ERR-7) Neutron absorption in sample, 1.5%             10850  2   14 
           (ERR-8) Neutron multiple scattering in sample, 2%      10850  2   15 
           (ERR-9) Corrections for activity decay, 2%             10850  2   16 
           (ERR-10,1.,4.5) Background effects, 1-4.5%             10850  2   17 
           (ERR-11) Gamma decay branching factor, 4.4%            10850  2   18 
          2(MONIT-ERR) Assumed uncertainty in U238 fission cs     10850  2   19 
MISC-COL  2(MISC) Resolution of normalization energy              10850  2   20 
STATUS     (TABLE) Table III, Nucl.Sci.Eng.77,256,1981            10850  2   21 
ENDBIB              19          0                                 10850  2   22 
COMMON              10          6                                 10850  2   23 
ERR-2      ERR-3      ERR-4      ERR-5      ERR-6      ERR-7      10850  2   24 
ERR-8      ERR-9      ERR-11     MONIT-ERR 2                      10850  2   25 
PER-CENT   PER-CENT   PER-CENT   PER-CENT   PER-CENT   PER-CENT   10850  2   26 
PER-CENT   PER-CENT   PER-CENT   PER-CENT                         10850  2   27 
   3.         3.         4.         1.         1.         1.5     10850  2   28 
   2.         2.         4.5        5.                            10850  2   29 
ENDCOMMON            6          0                                 10850  2   30 
DATA                 9         47                                 10850  2   31 
EN         EN-RSL     DATA      1ERR-T     1EN-NRM    2MISC      210850  2   32 
DATA      2ERR-T     2MONIT     2                                 10850  2   33 
MEV        MEV        NO-DIM     PER-CENT   MEV        MEV        10850  2   34 
MB         PER-CENT   MB                                          10850  2   35 
 4.858      0.264      4.643 E-03 22.6       4.829      0.275     10850  2   36 
  2.502     23.1       538.8                                      10850  2   37 
 4.865      0.250      2.386 E-03 85.3       4.829      0.279     10850  2   38 
  1.286     85.5       538.8                                      10850  2   39 
 4.981      0.234      6.899 E-03 18.0       4.951      0.279     10850  2   40 
  3.690     18.7       534.9                                      10850  2   41 
 4.988      0.237      7.535 E-03 27.6       4.951      0.277     10850  2   42 
  4.031     28.0       534.9                                      10850  2   43 
 5.099      0.233      9.027 E-03 16.1       5.068      0.263     10850  2   44 
  4.832     16.9       535.3                                      10850  2   45 
 5.107      0.227      7.769 E-03 29.0       5.068      0.261     10850  2   46 
  4.159     29.4       535.3                                      10850  2   47 
 5.218      0.222      7.510 E-03 20.6       5.185      0.255     10850  2   48 
  4.045     21.2       538.6                                      10850  2   49 
 5.225      0.215      6.420 E-03 31.9       5.185      0.242     10850  2   50 
  3.458     32.3       538.6                                      10850  2   51 
 5.331      0.217      4.630 E-03 28.9       5.299      0.237     10850  2   52 
  2.509     29.3       541.8                                      10850  2   53 
 5.339      0.205      3.492 E-03 49.6       5.298      0.229     10850  2   54 
  1.892     49.9       541.7                                      10850  2   55 
 5.454      0.203      5.281 E-03 27.5       5.412      0.229     10850  2   56 
  2.878     27.9       544.9                                      10850  2   57 
 5.565      0.189      9.270 E-03 19.1       5.522      0.216     10850  2   58 
  5.101     19.7       550.3                                      10850  2   59 
 5.678      0.191      1.607 E-02 13.8       5.634      0.223     10850  2   60 
  9.078     14.7       564.9                                      10850  2   61 
 5.787      0.176      2.364 E-02 12.0       5.742      0.204     10850  2   62 
 13.69      13.0       579.0                                      10850  2   63 
 5.898      0.174      2.859 E-02 10.8       5.851      0.192     10850  2   64 
 16.96      11.9       593.2                                      10850  2   65 
 6.005      0.168      3.203 E-02 10.2       5.958      0.197     10850  2   66 
 19.45      11.4       607.1                                      10850  2   67 
 6.114      0.167      4.129 E-02  9.7       6.065      0.183     10850  2   68 
 26.29      10.9       636.6                                      10850  2   69 
 6.163      0.152      4.137 E-02  9.5       6.114      0.187     10850  2   70 
 27.09      10.7       654.7                                      10850  2   71 
 6.327      0.154      3.323 E-02  9.9       6.278      0.183     10850  2   72 
 23.94      11.1       720.4                                      10850  2   73 
 6.433      0.147      3.270 E-02  9.6       6.382      0.194     10850  2   74 
 25.04      10.8       765.8                                      10850  2   75 
 6.538      0.143      4.013 E-02  9.5       6.486      0.158     10850  2   76 
 32.27      10.7       804.1                                      10850  2   77 
 6.642      0.139      4.027 E-02  9.3       6.589      0.174     10850  2   78 
 33.68      10.5       836.4                                      10850  2   79 
 6.746      0.136      2.985 E-02  9.6       6.692      0.174     10850  2   80 
 25.81      10.8       864.5                                      10850  2   81 
 6.834      0.136      2.176 E-02 11.0       6.779      0.187     10850  2   82 
 19.32      12.0       887.9                                      10850  2   83 
 6.937      0.129      3.288 E-02  9.8       6.881      0.190     10850  2   84 
 29.76      11.0       905.0                                      10850  2   85 
 7.038      0.130      3.229 E-02  9.9       6.980      0.189     10850  2   86 
 29.68      11.1       919.0                                      10850  2   87 
 7.141      0.124      3.902 E-02  9.6       7.082      0.180     10850  2   88 
 36.39      10.8       932.5                                      10850  2   89 
 7.242      0.128      3.474 E-02  9.6       7.182      0.173     10850  2   90 
 32.85      10.9       945.6                                      10850  2   91 
 7.342      0.117      2.943 E-02  9.9       7.282      0.171     10850  2   92 
 28.21      11.1       958.6                                      10850  2   93 
 7.443      0.122      3.136 E-02  9.8       7.380      0.163     10850  2   94 
 30.46      11.0       971.4                                      10850  2   95 
 7.544      0.117      3.377 E-02  9.7       7.480      0.178     10850  2   96 
 33.25      10.9       984.5                                      10850  2   97 
 7.643      0.121      4.257 E-02  9.4       7.578      0.173     10850  2   98 
 42.05      10.6       987.7                                      10850  2   99 
 7.743      0.117      3.784 E-02  9.5       7.677      0.193     10850  2  100 
 37.41      10.7       988.5                                      10850  2  101 
 7.843      0.116      3.501 E-02  9.6       7.776      0.192     10850  2  102 
 34.64      10.9       989.3                                      10850  2  103 
 7.941      0.115      3.100 E-02  9.8       7.873      0.198     10850  2  104 
 30.69      11.0       990.0                                      10850  2  105 
 8.002      0.114      2.835 E-02  9.7       7.992      0.219     10850  2  106 
 28.09      10.9       990.9                                      10850  2  107 
 8.040      0.117      2.696 E-02 10.3       7.971      0.211     10850  2  108 
 26.71      11.5       990.8                                      10850  2  109 
 8.162      0.114      3.216 E-02  9.4       8.091      0.207     10850  2  110 
 31.89      10.7       991.7                                      10850  2  111 
 8.261      0.111      3.696 E-02  9.4       8.189      0.222     10850  2  112 
 36.68      10.6       992.4                                      10850  2  113 
 8.360      0.103      3.857 E-02  9.1       8.287      0.209     10850  2  114 
 38.30      10.4       993.1                                      10850  2  115 
 8.459      0.105      3.461 E-02  9.3       8.387      0.207     10850  2  116 
 34.40      10.6       993.9                                      10850  2  117 
 8.557      0.108      3.520 E-02  9.1       8.485      0.215     10850  2  118 
 35.01      10.4       994.6                                      10850  2  119 
 8.655      0.117      3.779 E-02  9.1       8.580      0.221     10850  2  120 
 37.61      10.3       995.3                                      10850  2  121 
 8.753      0.115      4.226 E-02  9.1       8.678      0.215     10850  2  122 
 42.09      10.4       996.0                                      10850  2  123 
 8.851      0.114      4.343 E-02  9.1       8.775      0.222     10850  2  124 
 43.29      10.4       996.7                                      10850  2  125 
 8.949      0.111      4.012 E-02  9.0       8.872      0.221     10850  2  126 
 40.02      10.3       997.5                                      10850  2  127 
 8.949      0.115      4.135 E-02 12.2       8.872      0.232     10850  2  128 
 41.25      13.2       997.5                                      10850  2  129 
ENDDATA             98          0                                 10850  2  130 
ENDSUBENT          129          0                                 10850  299999 
SUBENT        10850003   20200116                             146210850  3    1 
BIB                  5         19                                 10850  3    2 
REACTION  1((9-F-19(N,A)7-N-16,,SIG)/(92-U-238(N,F),,SIG))        10850  3    3 
          2(9-F-19(N,A)7-N-16,,SIG)                               10850  3    4 
DECAY-DATA (7-N-16,7.12SEC,DG,6129.,0.690)                        10850  3    5 
ERR-ANALYS (ERR-T) Errors include:                                10850  3    6 
           (ERR-1,4.,8.) Determination of detector counts,        10850  3    7 
            4-8%                                                  10850  3    8 
           (ERR-2) Geometric effects, 3%                          10850  3    9 
           (ERR-3,2.,3.) Neutron source characteristics, 2-3%     10850  3   10 
           (ERR-4) Gamma detector efficiency, 10%                 10850  3   11 
           (ERR-5) Mass of uranium deposit, 1%                    10850  3   12 
           (ERR-6,,0.5) Gamma absorption in sample, <0.5%         10850  3   13 
           (ERR-7) Neutron absorption in sample, 1.5%             10850  3   14 
           (ERR-8) Neutron multiple scattering in sample, 2%      10850  3   15 
           (ERR-9) Corrections for activity decay, 2%             10850  3   16 
           (ERR-10,1.,7.) Background effects, 1-7%                10850  3   17 
           (ERR-11) Gamma decay branching factor, 3%              10850  3   18 
          2(MONIT-ERR) Assumed uncertainty in U238 fission cs     10850  3   19 
MISC-COL  2(MISC) Resolution of normalization energy              10850  3   20 
STATUS     (TABLE) Table IV, Nucl.Sci.Eng.77,256,1981             10850  3   21 
ENDBIB              19          0                                 10850  3   22 
COMMON               8          6                                 10850  3   23 
ERR-2      ERR-4      ERR-5      ERR-7      ERR-8      ERR-9      10850  3   24 
ERR-11     MONIT-ERR 2                                            10850  3   25 
PER-CENT   PER-CENT   PER-CENT   PER-CENT   PER-CENT   PER-CENT   10850  3   26 
PER-CENT   PER-CENT                                               10850  3   27 
   3.        10.         1.         1.5         2.        2.      10850  3   28 
   3.         5.                                                  10850  3   29 
ENDCOMMON            6          0                                 10850  3   30 
DATA                 9         75                                 10850  3   31 
EN         EN-RSL     DATA      1ERR-T     1EN-NRM    2MISC      210850  3   32 
DATA      2ERR-T     2MONIT     2                                 10850  3   33 
MEV        MEV        NO-DIM     PER-CENT   MEV        MEV        10850  3   34 
MB         PER-CENT   MB                                          10850  3   35 
 3.344      0.091      5.903 E-03 13.9       3.314      0.107     10850  3   36 
   3.117    14.8       528.1                                      10850  3   37 
 3.443      0.089      1.678 E-02 12.7       3.413      0.106     10850  3   38 
   8.902    13.6       530.5                                      10850  3   39 
 3.544      0.084      3.210 E-02 12.6       3.517      0.101     10850  3   40 
  17.13     13.5       533.7                                      10850  3   41 
 3.644      0.085      4.544 E-02 12.4       3.616      0.097     10850  3   42 
  24.50     13.4       539.2                                      10850  3   43 
 3.744      0.085      4.605 E-02 12.5       3.715      0.104     10850  3   44 
  25.05     13.4       544.0                                      10850  3   45 
 3.843      0.083      3.669 E-02 12.5       3.814      0.102     10850  3   46 
  19.98     13.5       544.6                                      10850  3   47 
 3.849      0.084      3.707 E-02 13.2       3.814      0.097     10850  3   48 
  20.19     14.1       544.6                                      10850  3   49 
 3.875      0.085      3.853 E-02 13.0       3.823      0.138     10850  3   50 
  20.98     13.9       544.6                                      10850  3   51 
 3.943      0.080      5.216 E-02 12.3       3.913      0.101     10850  3   52 
  28.44     13.3       545.2                                      10850  3   53 
 3.949      0.087      5.073 E-02 12.8       3.913      0.102     10850  3   54 
  27.66     13.8       545.2                                      10850  3   55 
 3.976      0.082      5.353 E-02 12.8       3.922      0.140     10850  3   56 
  29.18     13.7       545.2                                      10850  3   57 
 4.042      0.080      8.244 E-02 12.2       4.012      0.105     10850  3   58 
  45.00     13.2       545.8                                      10850  3   59 
 4.048      0.082      8.029 E-02 12.5       4.012      0.110     10850  3   60 
  43.82     13.5       545.8                                      10850  3   61 
 4.076      0.080      8.157 E-02 12.4       4.022      0.144     10850  3   62 
  44.53     13.4       545.9                                      10850  3   63 
 4.141      0.079      8.209 E-02 12.2       4.100      0.127     10850  3   64 
  44.88     13.2       546.7                                      10850  3   65 
 4.147      0.079      9.647 E-02 12.4       4.100      0.122     10850  3   66 
  52.74     13.3       546.7                                      10850  3   67 
 4.177      0.078      9.803 E-02 12.3       4.122      0.146     10850  3   68 
  53.62     13.3       547.0                                      10850  3   69 
 4.237      0.081      0.1337     12.1       4.195      0.129     10850  3   70 
  73.23     13.1       547.7                                      10850  3   71 
 4.243      0.080      0.1368     12.2       4.195      0.128     10850  3   72 
  74.93     13.2       547.7                                      10850  3   73 
 4.277      0.076      0.1558     12.3       4.221      0.154     10850  3   74 
  85.36     13.2       547.9                                      10850  3   75 
 4.379      0.078      0.1862     12.3       4.331      0.130     10850  3   76 
 102.1      13.2       548.4                                      10850  3   77 
 4.480      0.074      0.1593     12.3       4.431      0.132     10850  3   78 
  87.44     13.3       548.9                                      10850  3   79 
 4.580      0.075      0.1495     12.3       4.531      0.134     10850  3   80 
  81.96     13.3       548.2                                      10850  3   81 
 4.680      0.074      0.1723     12.3       4.630      0.137     10850  3   82 
  93.92     13.3       545.1                                      10850  3   83 
 4.781      0.072      0.2222     12.2       4.729      0.142     10850  3   84 
 120.4      13.2       542.0                                      10850  3   85 
 4.861      0.254      0.1900     13.1       4.830      0.271     10850  3   86 
 102.4      14.1       538.8                                      10850  3   87 
 4.867      0.253      0.1936     13.3       4.830      0.287     10850  3   88 
 104.3      14.2       538.8                                      10850  3   89 
 4.882      0.073      0.1996     12.3       4.829      0.125     10850  3   90 
 107.5      13.2       538.8                                      10850  3   91 
 4.982      0.072      0.1605     12.4       4.928      0.142     10850  3   92 
  85.98     13.4       535.7                                      10850  3   93 
 4.982      0.246      0.1694     13.1       4.951      0.274     10850  3   94 
  90.61     14.1       534.9                                      10850  3   95 
 4.989      0.233      0.1711     13.4       4.951      0.260     10850  3   96 
  91.52     14.3       534.9                                      10850  3   97 
 5.082      0.069      0.1668     12.4       5.028      0.153     10850  3   98 
  89.10     13.4       534.2                                      10850  3   99 
 5.098      0.233      0.1715     13.2       5.068      0.250     10850  3  100 
  91.80     14.1       535.3                                      10850  3  101 
 5.106      0.225      0.1675     13.7       5.068      0.263     10850  3  102 
  89.66     14.5       535.3                                      10850  3  103 
 5.217      0.221      0.1750     13.2       5.186      0.243     10850  3  104 
  94.26     14.1       538.6                                      10850  3  105 
 5.225      0.216      0.1702     13.6       5.186      0.237     10850  3  106 
  91.67     14.5       538.6                                      10850  3  107 
 5.331      0.211      0.2039     13.2       5.299      0.242     10850  3  108 
 110.5      14.1       541.8                                      10850  3  109 
 5.339      0.205      0.2188     13.2       5.298      0.230     10850  3  110 
 118.5      14.1       541.7                                      10850  3  111 
 5.455      0.199      0.2508     13.1       5.412      0.225     10850  3  112 
 136.7      14.1       544.9                                      10850  3  113 
 5.566      0.187      0.2712     13.1       5.522      0.213     10850  3  114 
 149.2      14.1       550.3                                      10850  3  115 
 5.679      0.186      0.2833     13.1       5.634      0.222     10850  3  116 
 160.0      14.1       564.9                                      10850  3  117 
 5.788      0.177      0.2846     13.2       5.742      0.203     10850  3  118 
 164.8      14.1       579.0                                      10850  3  119 
 5.898      0.169      0.2702     13.1       5.851      0.189     10850  3  120 
 160.3      14.1       593.2                                      10850  3  121 
 6.006      0.168      0.2561     13.1       5.958      0.192     10850  3  122 
 155.5      14.0       607.1                                      10850  3  123 
 6.114      0.161      0.2464     13.1       6.065      0.187     10850  3  124 
 156.9      14.1       636.6                                      10850  3  125 
 6.163      0.154      0.2236     13.2       6.114      0.186     10850  3  126 
 146.4      14.1       654.7                                      10850  3  127 
 6.327      0.147      0.1600     13.2       6.278      0.189     10850  3  128 
 115.3      14.1       720.4                                      10850  3  129 
 6.433      0.147      0.1525     13.2       6.382      0.186     10850  3  130 
 116.8      14.1       765.8                                      10850  3  131 
 6.538      0.141      0.1411     13.2       6.486      0.173     10850  3  132 
 113.5      14.1       804.1                                      10850  3  133 
 6.642      0.140      0.1525     13.2       6.590      0.190     10850  3  134 
 127.6      14.1       836.7                                      10850  3  135 
 6.746      0.135      0.1461     13.2       6.692      0.177     10850  3  136 
 126.3      14.1       864.5                                      10850  3  137 
 6.835      0.130      0.1405     13.2       6.779      0.185     10850  3  138 
 124.7      14.1       887.9                                      10850  3  139 
 6.937      0.133      0.1269     13.2       6.881      0.185     10850  3  140 
 114.8      14.2       905.0                                      10850  3  141 
 7.039      0.130      0.1275     13.2       6.981      0.198     10850  3  142 
 117.2      14.2       919.1                                      10850  3  143 
 7.140      0.127      0.1138     13.3       7.081      0.182     10850  3  144 
 106.1      14.2       932.4                                      10850  3  145 
 7.242      0.130      9.659 E-02 13.3       7.182      0.180     10850  3  146 
  91.34     14.2       945.6                                      10850  3  147 
 7.342      0.119      0.1092     13.3       7.282      0.177     10850  3  148 
 104.7      14.2       958.6                                      10850  3  149 
 7.443      0.123      0.1130     13.2       7.380      0.187     10850  3  150 
 109.8      14.2       971.4                                      10850  3  151 
 7.544      0.124      9.620 E-02 13.3       7.480      0.176     10850  3  152 
  94.71     14.2       984.5                                      10850  3  153 
 7.643      0.121      8.731 E-02 13.3       7.578      0.179     10850  3  154 
  86.24     14.2       987.7                                      10850  3  155 
 7.743      0.118      8.299 E-02 13.3       7.677      0.191     10850  3  156 
  82.04     14.2       988.5                                      10850  3  157 
 7.843      0.113      8.736 E-02 13.3       7.776      0.211     10850  3  158 
  86.43     14.2       989.3                                      10850  3  159 
 7.942      0.120      8.663 E-02 13.3       7.874      0.202     10850  3  160 
  85.76     14.2       990.0                                      10850  3  161 
 8.040      0.119      8.311 E-02 13.3       7.971      0.202     10850  3  162 
  82.35     14.2       990.8                                      10850  3  163 
 8.062      0.119      8.442 E-02 13.2       7.992      0.217     10850  3  164 
  83.65     14.2       990.9                                      10850  3  165 
 8.162      0.118      8.051 E-02 13.2       8.090      0.217     10850  3  166 
  79.84     14.2       991.7                                      10850  3  167 
 8.261      0.109      7.796 E-02 13.3       8.189      0.205     10850  3  168 
  77.37     14.2       992.4                                      10850  3  169 
 8.360      0.110      8.169 E-02 13.2       8.287      0.222     10850  3  170 
  81.13     14.1       993.1                                      10850  3  171 
 8.459      0.113      8.880 E-02 13.2       8.387      0.209     10850  3  172 
  88.26     14.1       993.9                                      10850  3  173 
 8.557      0.112      8.338 E-02 13.2       8.485      0.205     10850  3  174 
  82.93     14.1       994.6                                      10850  3  175 
 8.655      0.118      8.540 E-02 13.2       8.580      0.225     10850  3  176 
  85.00     14.2       995.3                                      10850  3  177 
 8.753      0.114      7.958 E-02 13.2       8.678      0.219     10850  3  178 
  79.26     14.1       996.0                                      10850  3  179 
 8.851      0.111      7.354 E-02 13.2       8.775      0.222     10850  3  180 
  73.30     14.2       996.7                                      10850  3  181 
 8.949      0.119      6.027 E-02 13.2       8.872      0.233     10850  3  182 
  60.12     14.2       997.5                                      10850  3  183 
 8.949      0.116      6.530 E-02 15.0       8.872      0.249     10850  3  184 
  65.14     15.9       997.5                                      10850  3  185 
ENDDATA            154          0                                 10850  3  186 
ENDSUBENT          185          0                                 10850  399999 
ENDENTRY             3          0                                 1085099999999 
