ENTRY            10850   19810414                             00001085000000001 
SUBENT        10850001   19810414                             00001085000100001 
BIB                 13         33                                 1085000100002 
INSTITUTE  (1USAANL)                                              1085000100003 
REFERENCE  (J,NSE,77,256,8102)                                    1085000100004 
AUTHOR     (D.L.SMITH,J.W.MEADOWS,J.F.WHALEN)                     1085000100005 
TITLE      CROSS SECTIONS FOR F-19(N,P)O-19 AND F-19(N,ALPHA)N-16 1085000100006 
                 FROM THRESHOLD TO 9-MEV.                         1085000100007 
FACILITY   (DYNAM) ARGONNE NATIONAL LABORATORY FAST NEUTRON       1085000100008 
            GENERATOR                                             1085000100009 
N-SOURCE   (P-LI7) PROTONS ON LITHIUM, NEUTRON ENERGY BELOW 5-MEV 1085000100010 
           (D-D) DEUTERONS ON DEUTERIUM GAS, NEUTRON ENERGY ABOVE 1085000100011 
            5-MEV                                                 1085000100012 
SAMPLE     SOLID CYLINDERS OF TEFLON (CF2). MASSES OF 42.4-GRAMS  1085000100013 
            AND 93.2-GRAMS.                                       1085000100014 
DETECTOR   (FISCH) URANIUM FISSION CHAMBER TO MEASURE NEUTRON     1085000100015 
            PRODUCTION WHEN BEAM IS ON TARGET.                    1085000100016 
           (GELI) COAXIAL GERMANIUM-LITHIUM DETECTOR WITH MASSIVE 1085000100017 
            SHIELD USED TO DETECT DECAY OF REACTION PRODUCTS.     1085000100018 
            PLACED 90-DEGREES FROM BEAM LINE.                     1085000100019 
MONITOR    CHLORINE CAPTURE GAMMAS USED TO MEASURE GELI DETECTOR  1085000100020 
            EFFICIENCY.                                           1085000100021 
          2(92-U-238(N,F),,SIG) USED AS FLUX MONITOR. VALUES TAKEN1085000100022 
            FROM ENDF/B-V.                                        1085000100023 
METHOD     (ACTIV) CYCLIC ACTIVATION METHOD. REACTION PRODUCT     1085000100024 
            DECAYS MEASURED DURING OFF PULSES OF BEAM. POST       1085000100025 
            ACCELERATION PULSING OF PROTON BEAM USED.             1085000100026 
CORRECTION CORRECTED FOR-                                         1085000100027 
            -GEOMETRY                                             1085000100028 
            -NEUTRON SOURCE CHARACTERISTICS                       1085000100029 
            -TARGET CHARACTERISTICS                               1085000100030 
            -ABSORPTION AND MULTIPLE SCATTERING OF NEUTRONS       1085000100031 
            -ABSORPTION OF GAMMAS                                 1085000100032 
            -DECAY OF REACTION PRODUCTS                           1085000100033 
STATUS     (APRVD) APPROVED BY J.W.MEADOWS, 81/4/28.              1085000100034 
HISTORY    (810324C)                                              1085000100035 
ENDBIB              33          0                                 1085000100036 
NOCOMMON             0          0                                 1085000100037 
ENDSUBENT           36          0                                 1085000199999 
SUBENT        10850002   19810414                             00001085000200001 
BIB                  4         16                                 1085000200002 
REACTION  1((9-F-19(N,P)8-O-19,,SIG)/(92-U-238(N,F),,SIG))        1085000200003 
          2(9-F-19(N,P)8-O-19,,SIG)                               1085000200004 
DECAY-DATA (8-O-19,26.91SEC,DG,1356.,0.503)                       1085000200005 
ERR-ANALYS ERRORS INCLUDE-                                        1085000200006 
            -DETERMINATION OF DETECTOR COUNTS, 3-85 PERCENT       1085000200007 
            -GEOMETRIC EFFECTS, 3-PERCENT                         1085000200008 
            -NEUTRON SOURCE CHARACTERISTICS, 3-PERCENT            1085000200009 
            -GAMMA DETECTOR EFFICIENCY, 4-PERCENT                 1085000200010 
            -MASS OF URANIUM DEPOSIT, 1-PERCENT                   1085000200011 
            -GAMMA ABSORPTION IN SAMPLE, 1-PERCENT                1085000200012 
            -NEUTRON ABSORPTION IN SAMPLE, 1.5-PERCENT            1085000200013 
            -NEUTRON MULTIPLE SCATTERING IN SAMPLE, 2-PERCENT     1085000200014 
            -CORRECTIONS FOR ACTIVITY DECAY, 2-PERCENT            1085000200015 
            -BACKGROUND EFFECTS, 1-4.5 PERCENT                    1085000200016 
            -GAMMA DECAY BRANCHING FACTOR, 4.4-PERCENT            1085000200017 
MISC-COL  2(MISC) RESOLUTION OF NORMALIZATION ENERGY              1085000200018 
ENDBIB              16          0                                 1085000200019 
NOCOMMON             0          0                                 1085000200020 
DATA                 9         47                                 1085000200021 
EN         EN-RSL     DATA      1DATA-ERR  1EN-NRM    2MISC      21085000200022 
DATA      2DATA-ERR  2MONIT     2                                 1085000200023 
MEV        MEV        NO-DIM     PER-CENT   MEV        MEV        1085000200024 
MB         PER-CENT   MB                                          1085000200025 
 4.858      0.264      4.643 E-03 22.6       4.829      0.275     1085000200026 
  2.502     23.1       538.8                                      1085000200027 
 4.865      0.250      2.386 E-03 85.3       4.829      0.279     1085000200028 
  1.286     85.5       538.8                                      1085000200029 
 4.981      0.234      6.899 E-03 18.0       4.951      0.279     1085000200030 
  3.690     18.7       534.9                                      1085000200031 
 4.988      0.237      7.535 E-03 27.6       4.951      0.277     1085000200032 
  4.031     28.0       534.9                                      1085000200033 
 5.099      0.233      9.027 E-03 16.1       5.068      0.263     1085000200034 
  4.832     16.9       535.3                                      1085000200035 
 5.107      0.227      7.769 E-03 29.0       5.068      0.261     1085000200036 
  4.159     29.4       535.3                                      1085000200037 
 5.218      0.222      7.510 E-03 20.6       5.185      0.255     1085000200038 
  4.045     21.2       538.6                                      1085000200039 
 5.225      0.215      6.420 E-03 31.9       5.185      0.242     1085000200040 
  3.458     32.3       538.6                                      1085000200041 
 5.331      0.217      4.630 E-03 28.9       5.299      0.237     1085000200042 
  2.509     29.3       541.8                                      1085000200043 
 5.339      0.205      3.492 E-03 49.6       5.298      0.229     1085000200044 
  1.892     49.9       541.7                                      1085000200045 
 5.454      0.203      5.281 E-03 27.5       5.412      0.229     1085000200046 
  2.878     27.9       544.9                                      1085000200047 
 5.565      0.189      9.270 E-03 19.1       5.522      0.216     1085000200048 
  5.101     19.7       550.3                                      1085000200049 
 5.678      0.191      1.607 E-02 13.8       5.634      0.223     1085000200050 
  9.078     14.7       564.9                                      1085000200051 
 5.787      0.176      2.364 E-02 12.0       5.742      0.204     1085000200052 
 13.69      13.0       579.0                                      1085000200053 
 5.898      0.174      2.859 E-02 10.8       5.851      0.192     1085000200054 
 16.96      11.9       593.2                                      1085000200055 
 6.005      0.168      3.203 E-02 10.2       5.958      0.197     1085000200056 
 19.45      11.4       607.1                                      1085000200057 
 6.114      0.167      4.129 E-02  9.7       6.065      0.183     1085000200058 
 26.29      10.9       636.6                                      1085000200059 
 6.163      0.152      4.137 E-02  9.5       6.114      0.187     1085000200060 
 27.09      10.7       654.7                                      1085000200061 
 6.327      0.154      3.323 E-02  9.9       6.278      0.183     1085000200062 
 23.94      11.1       720.4                                      1085000200063 
 6.433      0.147      3.270 E-02  9.6       6.382      0.194     1085000200064 
 25.04      10.8       765.8                                      1085000200065 
 6.538      0.143      4.013 E-02  9.5       6.486      0.158     1085000200066 
 32.27      10.7       804.1                                      1085000200067 
 6.642      0.139      4.027 E-02  9.3       6.589      0.174     1085000200068 
 33.68      10.5       836.4                                      1085000200069 
 6.746      0.136      2.985 E-02  9.6       6.692      0.174     1085000200070 
 25.81      10.8       864.5                                      1085000200071 
 6.834      0.136      2.176 E-02 11.0       6.779      0.187     1085000200072 
 19.32      12.0       887.9                                      1085000200073 
 6.937      0.129      3.288 E-02  9.8       6.881      0.190     1085000200074 
 29.76      11.0       905.0                                      1085000200075 
 7.038      0.130      3.229 E-02  9.9       6.980      0.189     1085000200076 
 29.68      11.1       919.0                                      1085000200077 
 7.141      0.124      3.902 E-02  9.6       7.082      0.180     1085000200078 
 36.39      10.8       932.5                                      1085000200079 
 7.242      0.128      3.474 E-02  9.6       7.182      0.173     1085000200080 
 32.85      10.9       945.6                                      1085000200081 
 7.342      0.117      2.943 E-02  9.9       7.282      0.171     1085000200082 
 28.21      11.1       958.6                                      1085000200083 
 7.443      0.122      3.136 E-02  9.8       7.380      0.163     1085000200084 
 30.46      11.0       971.4                                      1085000200085 
 7.544      0.117      3.377 E-02  9.7       7.480      0.178     1085000200086 
 33.25      10.9       984.5                                      1085000200087 
 7.643      0.121      4.257 E-02  9.4       7.578      0.173     1085000200088 
 42.05      10.6       987.7                                      1085000200089 
 7.743      0.117      3.784 E-02  9.5       7.677      0.193     1085000200090 
 37.41      10.7       988.5                                      1085000200091 
 7.843      0.116      3.501 E-02  9.6       7.776      0.192     1085000200092 
 34.64      10.9       989.3                                      1085000200093 
 7.941      0.115      3.100 E-02  9.8       7.873      0.198     1085000200094 
 30.69      11.0       990.0                                      1085000200095 
 8.002      0.114      2.835 E-02  9.7       7.992      0.219     1085000200096 
 28.09      10.9       990.9                                      1085000200097 
 8.040      0.117      2.696 E-02 10.3       7.971      0.211     1085000200098 
 26.71      11.5       990.8                                      1085000200099 
 8.162      0.114      3.216 E-02  9.4       8.091      0.207     1085000200100 
 31.89      10.7       991.7                                      1085000200101 
 8.261      0.111      3.696 E-02  9.4       8.189      0.222     1085000200102 
 36.68      10.6       992.4                                      1085000200103 
 8.360      0.103      3.857 E-02  9.1       8.287      0.209     1085000200104 
 38.30      10.4       993.1                                      1085000200105 
 8.459      0.105      3.461 E-02  9.3       8.387      0.207     1085000200106 
 34.40      10.6       993.9                                      1085000200107 
 8.557      0.108      3.520 E-02  9.1       8.485      0.215     1085000200108 
 35.01      10.4       994.6                                      1085000200109 
 8.655      0.117      3.779 E-02  9.1       8.580      0.221     1085000200110 
 37.61      10.3       995.3                                      1085000200111 
 8.753      0.115      4.226 E-02  9.1       8.678      0.215     1085000200112 
 42.09      10.4       996.0                                      1085000200113 
 8.851      0.114      4.343 E-02  9.1       8.775      0.222     1085000200114 
 43.29      10.4       996.7                                      1085000200115 
 8.949      0.111      4.012 E-02  9.0       8.872      0.221     1085000200116 
 40.02      10.3       997.5                                      1085000200117 
 8.949      0.115      4.135 E-02 12.2       8.872      0.232     1085000200118 
 41.25      13.2       997.5                                      1085000200119 
ENDDATA             98          0                                 1085000200120 
ENDSUBENT          119          0                                 1085000299999 
SUBENT        10850003   19810414                             00001085000300001 
BIB                  4         16                                 1085000300002 
REACTION  1((9-F-19(N,A)7-N-16,,SIG)/(92-U-238(N,F),,SIG))        1085000300003 
          2(9-F-19(N,A)7-N-16,,SIG)                               1085000300004 
DECAY-DATA (7-N-16,7.12SEC,DG,6129.,0.690)                        1085000300005 
ERR-ANALYS ERRORS INCLUDE-                                        1085000300006 
            -DETERMINATION OF DETECTOR COUNTS, 4-8 PERCENT        1085000300007 
            -GEOMETRIC EFFECTS, 3-PERCENT                         1085000300008 
            -NEUTRON SOURCE CHARACTERISTICS, 2-3 PERCENT          1085000300009 
            -GAMMA DETECTOR EFFICIENCY, 10-PERCENT                1085000300010 
            -MASS OF URANIUM DEPOSIT, 1-PERCENT                   1085000300011 
            -GAMMA ABSORPTION IN SAMPLE, LESS THAN 0.5 PERCENT    1085000300012 
            -NEUTRON ABSORPTION IN SAMPLE, 1.5 PERCENT            1085000300013 
            -NEUTRON MULTIPLE SCATTERING IN SAMPLE, 2-PERCENT     1085000300014 
            -CORRECTIONS FOR ACTIVITY DECAY, 2-PERCENT            1085000300015 
            -BACKGROUND EFFECTS, 1-7 PERCENT                      1085000300016 
            -GAMMA DECAY BRANCHING FACTOR, 3-PERCENT              1085000300017 
MISC-COL  2(MISC) RESOLUTION OF NORMALIZATION ENERGY              1085000300018 
ENDBIB              16          0                                 1085000300019 
NOCOMMON             0          0                                 1085000300020 
DATA                 9         75                                 1085000300021 
EN         EN-RSL     DATA      1DATA-ERR  1EN-NRM    2MISC      21085000300022 
DATA      2DATA-ERR  2MONIT     2                                 1085000300023 
MEV        MEV        NO-DIM     PER-CENT   MEV        MEV        1085000300024 
MB         PER-CENT   MB                                          1085000300025 
 3.344      0.091      5.903 E-03 13.9       3.314      0.107     1085000300026 
   3.117    14.8       528.1                                      1085000300027 
 3.443      0.089      1.678 E-02 12.7       3.413      0.106     1085000300028 
   8.902    13.6       530.5                                      1085000300029 
 3.544      0.084      3.210 E-02 12.6       3.517      0.101     1085000300030 
  17.13     13.5       533.7                                      1085000300031 
 3.644      0.085      4.544 E-02 12.4       3.616      0.097     1085000300032 
  24.50     13.4       539.2                                      1085000300033 
 3.744      0.085      4.605 E-02 12.5       3.715      0.104     1085000300034 
  25.05     13.4       544.0                                      1085000300035 
 3.843      0.083      3.669 E-02 12.5       3.814      0.102     1085000300036 
  19.98     13.5       544.6                                      1085000300037 
 3.849      0.084      3.707 E-02 13.2       3.814      0.097     1085000300038 
  20.19     14.1       544.6                                      1085000300039 
 3.875      0.085      3.853 E-02 13.0       3.823      0.138     1085000300040 
  20.98     13.9       544.6                                      1085000300041 
 3.943      0.080      5.216 E-02 12.3       3.913      0.101     1085000300042 
  28.44     13.3       545.2                                      1085000300043 
 3.949      0.087      5.073 E-02 12.8       3.913      0.102     1085000300044 
  27.66     13.8       545.2                                      1085000300045 
 3.976      0.082      5.353 E-02 12.8       3.922      0.140     1085000300046 
  29.18     13.7       545.2                                      1085000300047 
 4.042      0.080      8.244 E-02 12.2       4.012      0.105     1085000300048 
  45.00     13.2       545.8                                      1085000300049 
 4.048      0.082      8.029 E-02 12.5       4.012      0.110     1085000300050 
  43.82     13.5       545.8                                      1085000300051 
 4.076      0.080      8.157 E-02 12.4       4.022      0.144     1085000300052 
  44.53     13.4       545.9                                      1085000300053 
 4.141      0.079      8.209 E-02 12.2       4.100      0.127     1085000300054 
  44.88     13.2       546.7                                      1085000300055 
 4.147      0.079      9.647 E-02 12.4       4.100      0.122     1085000300056 
  52.74     13.3       546.7                                      1085000300057 
 4.177      0.078      9.803 E-02 12.3       4.122      0.146     1085000300058 
  53.62     13.3       547.0                                      1085000300059 
 4.237      0.081      0.1337     12.1       4.195      0.129     1085000300060 
  73.23     13.1       547.7                                      1085000300061 
 4.243      0.080      0.1368     12.2       4.195      0.128     1085000300062 
  74.93     13.2       547.7                                      1085000300063 
 4.277      0.076      0.1558     12.3       4.221      0.154     1085000300064 
  85.36     13.2       547.9                                      1085000300065 
 4.379      0.078      0.1862     12.3       4.331      0.130     1085000300066 
 102.1      13.2       548.4                                      1085000300067 
 4.480      0.074      0.1593     12.3       4.431      0.132     1085000300068 
  87.44     13.3       548.9                                      1085000300069 
 4.580      0.075      0.1495     12.3       4.531      0.134     1085000300070 
  81.96     13.3       548.2                                      1085000300071 
 4.680      0.074      0.1723     12.3       4.630      0.137     1085000300072 
  93.92     13.3       545.1                                      1085000300073 
 4.781      0.072      0.2222     12.2       4.729      0.142     1085000300074 
 120.4      13.2       542.0                                      1085000300075 
 4.861      0.254      0.1900     13.1       4.830      0.271     1085000300076 
 102.4      14.1       538.8                                      1085000300077 
 4.867      0.253      0.1936     13.3       4.830      0.287     1085000300078 
 104.3      14.2       538.8                                      1085000300079 
 4.882      0.073      0.1996     12.3       4.829      0.125     1085000300080 
 107.5      13.2       538.8                                      1085000300081 
 4.982      0.072      0.1605     12.4       4.928      0.142     1085000300082 
  85.98     13.4       535.7                                      1085000300083 
 4.982      0.246      0.1694     13.1       4.951      0.274     1085000300084 
  90.61     14.1       534.9                                      1085000300085 
 4.989      0.233      0.1711     13.4       4.951      0.260     1085000300086 
  91.52     14.3       534.9                                      1085000300087 
 5.082      0.069      0.1668     12.4       5.028      0.153     1085000300088 
  89.10     13.4       534.2                                      1085000300089 
 5.098      0.233      0.1715     13.2       5.068      0.250     1085000300090 
  91.80     14.1       535.3                                      1085000300091 
 5.106      0.225      0.1675     13.7       5.068      0.263     1085000300092 
  89.66     14.5       535.3                                      1085000300093 
 5.217      0.221      0.1750     13.2       5.186      0.243     1085000300094 
  94.26     14.1       538.6                                      1085000300095 
 5.225      0.216      0.1702     13.6       5.186      0.237     1085000300096 
  91.67     14.5       538.6                                      1085000300097 
 5.331      0.211      0.2039     13.2       5.299      0.242     1085000300098 
 110.5      14.1       541.8                                      1085000300099 
 5.339      0.205      0.2188     13.2       5.298      0.230     1085000300100 
 118.5      14.1       541.7                                      1085000300101 
 5.455      0.199      0.2508     13.1       5.412      0.225     1085000300102 
 136.7      14.1       544.9                                      1085000300103 
 5.566      0.187      0.2712     13.1       5.522      0.213     1085000300104 
 149.2      14.1       550.3                                      1085000300105 
 5.679      0.186      0.2833     13.1       5.634      0.222     1085000300106 
 160.0      14.1       564.9                                      1085000300107 
 5.788      0.177      0.2846     13.2       5.742      0.203     1085000300108 
 164.8      14.1       579.0                                      1085000300109 
 5.898      0.169      0.2702     13.1       5.851      0.189     1085000300110 
 160.3      14.1       593.2                                      1085000300111 
 6.006      0.168      0.2561     13.1       5.958      0.192     1085000300112 
 155.5      14.0       607.1                                      1085000300113 
 6.114      0.161      0.2464     13.1       6.065      0.187     1085000300114 
 156.9      14.1       636.6                                      1085000300115 
 6.163      0.154      0.2236     13.2       6.114      0.186     1085000300116 
 146.4      14.1       654.7                                      1085000300117 
 6.327      0.147      0.1600     13.2       6.278      0.189     1085000300118 
 115.3      14.1       720.4                                      1085000300119 
 6.433      0.147      0.1525     13.2       6.382      0.186     1085000300120 
 116.8      14.1       765.8                                      1085000300121 
 6.538      0.141      0.1411     13.2       6.486      0.173     1085000300122 
 113.5      14.1       804.1                                      1085000300123 
 6.642      0.140      0.1525     13.2       6.590      0.190     1085000300124 
 127.6      14.1       836.7                                      1085000300125 
 6.746      0.135      0.1461     13.2       6.692      0.177     1085000300126 
 126.3      14.1       864.5                                      1085000300127 
 6.835      0.130      0.1405     13.2       6.779      0.185     1085000300128 
 124.7      14.1       887.9                                      1085000300129 
 6.937      0.133      0.1269     13.2       6.881      0.185     1085000300130 
 114.8      14.2       905.0                                      1085000300131 
 7.039      0.130      0.1275     13.2       6.981      0.198     1085000300132 
 117.2      14.2       919.1                                      1085000300133 
 7.140      0.127      0.1138     13.3       7.081      0.182     1085000300134 
 106.1      14.2       932.4                                      1085000300135 
 7.242      0.130      9.659 E-02 13.3       7.182      0.180     1085000300136 
  91.34     14.2       945.6                                      1085000300137 
 7.342      0.119      0.1092     13.3       7.282      0.177     1085000300138 
 104.7      14.2       958.6                                      1085000300139 
 7.443      0.123      0.1130     13.2       7.380      0.187     1085000300140 
 109.8      14.2       971.4                                      1085000300141 
 7.544      0.124      9.620 E-02 13.3       7.480      0.176     1085000300142 
  94.71     14.2       984.5                                      1085000300143 
 7.643      0.121      8.731 E-02 13.3       7.578      0.179     1085000300144 
  86.24     14.2       987.7                                      1085000300145 
 7.743      0.118      8.299 E-02 13.3       7.677      0.191     1085000300146 
  82.04     14.2       988.5                                      1085000300147 
 7.843      0.113      8.736 E-02 13.3       7.776      0.211     1085000300148 
  86.43     14.2       989.3                                      1085000300149 
 7.942      0.120      8.663 E-02 13.3       7.874      0.202     1085000300150 
  85.76     14.2       990.0                                      1085000300151 
 8.040      0.119      8.311 E-02 13.3       7.971      0.202     1085000300152 
  82.35     14.2       990.8                                      1085000300153 
 8.062      0.119      8.442 E-02 13.2       7.992      0.217     1085000300154 
  83.65     14.2       990.9                                      1085000300155 
 8.162      0.118      8.051 E-02 13.2       8.090      0.217     1085000300156 
  79.84     14.2       991.7                                      1085000300157 
 8.261      0.109      7.796 E-02 13.3       8.189      0.205     1085000300158 
  77.37     14.2       992.4                                      1085000300159 
 8.360      0.110      8.169 E-02 13.2       8.287      0.222     1085000300160 
  81.13     14.1       993.1                                      1085000300161 
 8.459      0.113      8.880 E-02 13.2       8.387      0.209     1085000300162 
  88.26     14.1       993.9                                      1085000300163 
 8.557      0.112      8.338 E-02 13.2       8.485      0.205     1085000300164 
  82.93     14.1       994.6                                      1085000300165 
 8.655      0.118      8.540 E-02 13.2       8.580      0.225     1085000300166 
  85.00     14.2       995.3                                      1085000300167 
 8.753      0.114      7.958 E-02 13.2       8.678      0.219     1085000300168 
  79.26     14.1       996.0                                      1085000300169 
 8.851      0.111      7.354 E-02 13.2       8.775      0.222     1085000300170 
  73.30     14.2       996.7                                      1085000300171 
 8.949      0.119      6.027 E-02 13.2       8.872      0.233     1085000300172 
  60.12     14.2       997.5                                      1085000300173 
 8.949      0.116      6.530 E-02 15.0       8.872      0.249     1085000300174 
  65.14     15.9       997.5                                      1085000300175 
ENDDATA            154          0                                 1085000300176 
ENDSUBENT          175          0                                 1085000399999 
ENDENTRY             3          0                                 1085099999999 
