ENTRY            10878   19790716                             00001087800000001 
SUBENT        10878001   19790716                             00001087800100001 
BIB                  6          7                                 1087800100002 
INSTITUTE  (1USAANL,1USAORL)                                      1087800100003 
REFERENCE  (J,PR/C,9,346,7401)                                    1087800100004 
AUTHOR     (R.E.TOOHEY,H.E.JACKSON)                               1087800100005 
TITLE      VALENCE COMPONENT IN THE THRESHOLD PHOTONEUTRON        1087800100006 
            SPECTRUM OF ZR-91                                     1087800100007 
STATUS     (APRVD) APPROVED BY R.E.TOOHEY, 79/7/30.               1087800100008 
HISTORY    (790529C)                                              1087800100009 
ENDBIB               7          0                                 1087800100010 
NOCOMMON             0          0                                 1087800100011 
ENDSUBENT           10          0                                 1087800199999 
SUBENT        10878002   19790716                             00001087800200001 
BIB                  9         17                                 1087800200002 
REACTION  1(40-ZR-90(N,0),,EN)                                    1087800200003 
          2(40-ZR-90(N,0),,J)                                     1087800200004 
          3(40-ZR-90(N,0),,PTY)                                   1087800200005 
          4(40-ZR-90(N,G),,WID)                                   1087800200006 
           DATA OBTAINED FROM INVERSE OF ZR-90(N,GAMMA) REACTION  1087800200007 
FACILITY   (LINAC,1USAANL) HIGH CURRENT LINEAR ACCELERATOR,       1087800200008 
            THRESHOLD PHOTONEUTRON FACILITY                       1087800200009 
SAMPLE     30.6-GMS, 2.0-CM DIAMETER BY 1.5-CM THICK,ENRICHED TO  1087800200010 
            89.2-PERCENT ZR-91.                                   1087800200011 
METHOD     (TOF) TIME OF FLIGHT WITH 9-METER FLIGHT PATH          1087800200012 
DETECTOR   (SCIN) SIX LI-6 GLASS SCINTILLATOR                     1087800200013 
MONITOR    DATA NORMALIZED TO AREA OF 41-KEV RESONANCE IN PB-208. 1087800200014 
CORRECTION CORRECTED FOR BREMSSTRAHLUNG INTENSITY,DETECTOR        1087800200015 
            EFFICIENCY, AND RECOIL EFFECTS.                       1087800200016 
ERR-ANALYS QUOTED ERROR IS ESTIMATED. ERROR DUE TO UNCERTAINTY IN 1087800200017 
            BREMSSTRAHLUNG INTENSITY AND LOW YIELDS.              1087800200018 
FLAG       (1.) ENERGY IS NOT WELL RESOLVED                       1087800200019 
ENDBIB              17          0                                 1087800200020 
COMMON               1          3                                 1087800200021 
DATA-ERR  4                                                       1087800200022 
PER-CENT                                                          1087800200023 
 20.                                                              1087800200024 
ENDCOMMON            3          0                                 1087800200025 
DATA                 5         40                                 1087800200026 
DATA      1DATA      2DATA      3DATA      4FLAG                  1087800200027 
KEV        NO-DIM     NO-DIM     EV         NO-DIM                1087800200028 
   7.23     1.5        -1.        0.10                            1087800200029 
  26.46     1.5        -1.        0.12                            1087800200030 
  28.7      1.5        -1.        0.02                            1087800200031 
  35.2      0.5         1.        0.06                            1087800200032 
  39.3      1.5        -1.        0.05                            1087800200033 
  40.5      1.5        -1.        0.21       1.                   1087800200034 
  41.3      1.5        -1.        0.63       1.                   1087800200035 
  44.7      1.5        -1.        0.05                            1087800200036 
  61.7      1.5        -1.        0.05                            1087800200037 
  65.1      1.5        -1.        0.16                            1087800200038 
  68.4      1.5        -1.        0.11                            1087800200039 
  72.8      1.5        -1.        0.02                            1087800200040 
  75.8      1.5        -1.        0.04                            1087800200041 
  82.2      1.5        -1.        0.07                            1087800200042 
  87.1      0.5         1.        0.07                            1087800200043 
  92.5      1.5        -1.        0.05                            1087800200044 
  95.7      1.5        -1.        0.03       1.                   1087800200045 
  97.2      1.5        -1.        0.10       1.                   1087800200046 
 100.4      1.5        -1.        0.03                            1087800200047 
 105.1      1.5        -1.        0.28                            1087800200048 
 109.0      1.5        -1.        0.04                            1087800200049 
 110.0      1.5        -1.        0.33                            1087800200050 
 119.6      1.5        -1.        0.05                            1087800200051 
 126.3      0.5         1.        0.05                            1087800200052 
 130.0      1.5        -1.        0.23                            1087800200053 
 133.7      1.5        -1.        0.33                            1087800200054 
 138.8      1.5        -1.        0.12                            1087800200055 
 145.2      1.5        -1.        0.08                            1087800200056 
 155.6      1.5        -1.        0.17                            1087800200057 
 161.8      1.5        -1.        0.11                            1087800200058 
 165.9      1.5        -1.        0.26                            1087800200059 
 171.6      1.5        -1.        0.28                            1087800200060 
 176.7      1.5        -1.        0.57                            1087800200061 
 180.7      1.5        -1.        0.01                            1087800200062 
 184.1      1.5        -1.        0.11                            1087800200063 
 189.4      1.5        -1.        0.11                            1087800200064 
 199.1      0.5         1.        0.21                            1087800200065 
 209.9      1.5        -1.        0.11                            1087800200066 
 213.4      1.5        -1.        0.09                            1087800200067 
 220.4      1.5        -1.        0.37                            1087800200068 
ENDDATA             42          0                                 1087800200069 
ENDSUBENT           68          0                                 1087800299999 
SUBENT        10878003   19790716                             00001087800300001 
BIB                  9         17                                 1087800300002 
REACTION  1(40-ZR-90(N,0),,EN)                                    1087800300003 
          2(40-ZR-90(N,0),,L)                                     1087800300004 
          3(40-ZR-90(N,0),,J)                                     1087800300005 
          4(40-ZR-90(N,EL),,WID)                                  1087800300006 
          5(40-ZR-90(N,EL),,WID/RED)                              1087800300007 
FACILITY   (LINAC,1USAORL) OAK RIDGE ELECTRON LINEAR ACCELERATOR  1087800300008 
SAMPLE     37.6-GMS, 1.97-CM DIAMETER, 1.94-CM THICK, ENRICHED TO 1087800300009 
            97.7-PERCENT ZR-90.                                   1087800300010 
METHOD     (TOF) TIME OF FLIGHT WITH 80 AND 200-METER FLIGHT      1087800300011 
            PATHS. RUNS MADE WITH NATURAL SAMPLE IN ORDER TO      1087800300012 
            CORRECT DATA FOR RESONANCES CREATED BY CONTAMINANTS.  1087800300013 
DETECTOR   (SCIN) LI-6 GLASS OR PLASTIC SCINTILLATORS.            1087800300014 
MONITOR    NO INFORMATION                                         1087800300015 
CORRECTION CORRECTED FOR RESOLUTION EFFECTS. S-WAVE AREAS CORRECT-1087800300016 
            ED FOR NON-ZERO HARD SPHERE SCATTERING PHASE SHIFTS.  1087800300017 
ERR-ANALYS NO-INFORMATION                                         1087800300018 
HISTORY    (800131A) DATA CORRECTED                               1087800300019 
ENDBIB              17          0                                 1087800300020 
COMMON               1          3                                 1087800300021 
EN-RSL                                                            1087800300022 
PER-CENT                                                          1087800300023 
 0.01                                                             1087800300024 
ENDCOMMON            3          0                                 1087800300025 
DATA                 5         58                                 1087800300026 
DATA      1DATA      2DATA      3DATA      4DATA      5           1087800300027 
KEV        NO-DIM     NO-DIM     EV         EV                    1087800300028 
   3.86     0.         0.5           9.7      0.2                 1087800300029 
   7.25     1.         1.5           2.9      2.3                 1087800300030 
  13.4      0.         0.5          51.6      0.4                 1087800300031 
  17.4      0.         0.5         195.2      1.5                 1087800300032 
  26.46     1.         1.5           3.6      0.4                 1087800300033 
  28.8      1.         1.5           1.2      0.1                 1087800300034 
  35.4      0.         0.5          68.7      0.4                 1087800300035 
  39.5      1.         1.5           1.2      0.1                 1087800300036 
  40.4      1.         1.5          31.3      1.9                 1087800300037 
  41.3      1.         1.5         195.0     11.4                 1087800300038 
  42.4      0.         0.5         278.7      1.4                 1087800300039 
  44.6      1.         1.5          73.2      3.8                 1087800300040 
  52.4      0.         0.5          18.3      0.1                 1087800300041 
  59.0      0.         0.5         325.4      1.3                 1087800300042 
  61.9      1.         1.5           0.7      0.02                1087800300043 
  65.3      1.         1.5         116.3      3.4                 1087800300044 
  68.5      1.         1.5           1.0      0.03                1087800300045 
  70.8      0.         0.5         147.4      0.6                 1087800300046 
  72.5      1.         1.5         144.4      3.6                 1087800300047 
  73.5      0.         0.5         288.9      1.0                 1087800300048 
  74.5      1.         1.5          13.7      0.3                 1087800300049 
  82.1      1.         1.5         104.6      2.2                 1087800300050 
  85.8      0.         0.5          25.0      0.2                 1087800300051 
  90.4      0.         0.5          14.3      0.1                 1087800300052 
  92.9      1.         1.5           2.5      0.04                1087800300053 
  95.8      1.         1.5           7.8      0.1                 1087800300054 
  97.3      1.         1.5          17.7      0.3                 1087800300055 
  99.1      1.         1.5           2.5      0.04                1087800300056 
 105.6      1.         1.5         122.4      1.7                 1087800300057 
 109.3      1.         1.5          49.8      0.7                 1087800300058 
 110.3      1.         1.5          66.0      0.9                 1087800300059 
 114.4      0.         0.5         124.0      0.4                 1087800300060 
 119.0      1.         1.5          59.6      0.7                 1087800300061 
 127.3      1.         1.5         216.3      2.3                 1087800300062 
 129.8      0.         0.5          91.3      0.2                 1087800300063 
 134.2      1.         1.5         138.1      1.4                 1087800300064 
 139.0      1.         1.5           8.2      0.1                 1087800300065 
 144.6      0.         0.5                                        1087800300066 
 145.3      1.         1.5          70.6      0.6                 1087800300067 
 151.6      0.         0.5                                        1087800300068 
 156.1      1.         1.5        1220.6      9.7                 1087800300069 
 163.4      1.         1.5         240.4      1.8                 1087800300070 
 164.7      0.         0.5                                        1087800300071 
 166.5      1.         1.5         439.7      3.2                 1087800300072 
 169.2      0.         0.5                                        1087800300073 
 172.6      1.         1.5         266.6      1.8                 1087800300074 
 176.3      0.         0.5                                        1087800300075 
 177.7      1.         1.5         580.6      3.8                 1087800300076 
 181.6      1.         1.5         262.7      1.7                 1087800300077 
 184.3      1.         1.5         387.9      2.4                 1087800300078 
 186.3      0.         0.5                                        1087800300079 
 190.1      1.         1.5          70.8      0.4                 1087800300080 
 193.2      0.         0.5                                        1087800300081 
 198.7      0.         0.5                                        1087800300082 
 211.4      1.         1.5         254.7      1.3                 1087800300083 
 215.2      1.         1.5         202.6      1.0                 1087800300084 
 219.3      0.         0.5                                        1087800300085 
 220.3      1.         1.5        1258.2      6.0                 1087800300086 
ENDDATA             60          0                                 1087800300087 
ENDSUBENT           86          0                                 1087800399999 
SUBENT        10878004   19790716                             00001087800400001 
BIB                  8         12                                 1087800400002 
REACTION   (40-ZR-90(N,EL),,STF)                                  1087800400003 
FACILITY   (LINAC,1USAORL) OAK RIDGE ELECTRON LINEAR ACCELERATOR  1087800400004 
SAMPLE     37.6-GMS, 1.97-CM DIAMETER, 1.94-CM THICK, ENRICHED TO 1087800400005 
            97.7-PERCENT ZR-90.                                   1087800400006 
DETECTOR   (SCIN) LI-6 GLASS OR PLASTIC SCINTILLATORS             1087800400007 
MONITOR    NO INFORMATION                                         1087800400008 
METHOD     (TOF) TIME OF FLIGHT WITH 80 AND 200-METER FLIGHT      1087800400009 
            PATHS. RUNS MADE WITH NATURAL SAMPLE IN ORDER TO      1087800400010 
            CORRECT DATA FOR RESONANCES CREATED BY CONTAMINANTS.  1087800400011 
CORRECTION CORRECTED FOR RESOLUTION EFFECTS. S-WAVE AREAS CORRECT-1087800400012 
            ED FOR NON-ZERO HARD SPHERE SCATTERING PHASE SHIFTS.  1087800400013 
ERR-ANALYS NO-INFORMATION                                         1087800400014 
ENDBIB              12          0                                 1087800400015 
NOCOMMON             0          0                                 1087800400016 
DATA                 5          2                                 1087800400017 
EN-MIN     EN-MAX     MOMENTUM L DATA       DATA-ERR              1087800400018 
KEV        KEV        NO-DIM     NO-DIM     NO-DIM                1087800400019 
 3.86       129.8      0.         6.2   E-05 1.2   E-05           1087800400020 
 4.01       220.3      1.         3.2   E-04 9.0   E-05           1087800400021 
ENDDATA              4          0                                 1087800400022 
ENDSUBENT           21          0                                 1087800499999 
SUBENT        10878005   19790716                             00001087800500001 
BIB                  9         14                                 1087800500002 
REACTION   (40-ZR-90(N,G),,STF)  FROM INVERSE OF ZR-90(N,GAMMA)   1087800500003 
            REACTION                                              1087800500004 
FACILITY   (LINAC,1USAANL) HIGH CURRENT LINEAR ACCELERATOR,       1087800500005 
            THRESHOLD PHOTONEUTRON FACILITY                       1087800500006 
N-SOURCE   (PHOTO) PHOTONEUTRONS WITH ELECTRONS ON SILVER GAMMA   1087800500007 
            SOURCE                                                1087800500008 
SAMPLE     30.6-GMS, 2.0-CM DIAMETER BY 1.5-CM THICK, ENRICHED TO 1087800500009 
            89.2-PERCENT ZR-91.                                   1087800500010 
DETECTOR   (SCIN) SIX LI-6 GLASS SCINTILLATOR                     1087800500011 
MONITOR    DATA NORMALIZED TO AREA OF 41-KEV RESONANCE IN PB-208. 1087800500012 
METHOD     (TOF) TIME OF FLIGHT WITH 9-METER FLIGHT PATH          1087800500013 
CORRECTION CORRECTED FOR BREMSSTRAHLUNG INTENSITY, DETECTOR       1087800500014 
            EFFICIENCY, AND RECOIL EFFECTS.                       1087800500015 
ERR-ANALYS NO-INFORMATION                                         1087800500016 
ENDBIB              14          0                                 1087800500017 
NOCOMMON             0          0                                 1087800500018 
DATA                 4          1                                 1087800500019 
EN-MIN     EN-MAX     DATA       DATA-ERR                         1087800500020 
KEV        KEV        NO-DIM     NO-DIM                           1087800500021 
 6.82       214.4      2.8   E-05 6.    E-06                      1087800500022 
ENDDATA              3          0                                 1087800500023 
ENDSUBENT           22          0                                 1087800599999 
SUBENT        10878006   19800131                             00001087800600001 
BIB                  9         17                                 1087800600002 
REACTION  1(40-ZR-90(N,0),,EN)                                    1087800600003 
          2(40-ZR-90(N,0),,L)                                     1087800600004 
          3(40-ZR-90(N,0),,J)                                     1087800600005 
          4(40-ZR-90(N,EL),,WID,,G)                               1087800600006 
          5(40-ZR-90(N,EL),,WID/RED,,G)                           1087800600007 
FACILITY   (LINAC,1USAORL) OAK RIDGE ELECTRON LINEAR ACCELERATOR  1087800600008 
SAMPLE     37.6-GMS, 1.97-CM DIAMETER, 1.94-CM THICK, ENRICHED TO 1087800600009 
            97.7-PERCENT ZR-90.                                   1087800600010 
METHOD     (TOF) TIME OF FLIGHT WITH 80 AND 200-METER FLIGHT      1087800600011 
            PATHS. RUNS MADE WITH NATURAL SAMPLE IN ORDER TO      1087800600012 
            CORRECT DATA FOR RESONANCES CREATED BY CONTAMINANTS.  1087800600013 
DETECTOR   (SCIN) LI-6 GLASS OR PLASTIC SCINTILLATORS.            1087800600014 
MONITOR    NO INFORMATION                                         1087800600015 
CORRECTION CORRECTED FOR RESOLUTION EFFECTS. S-WAVE AREAS CORRECT-1087800600016 
            ED FOR NON-ZERO HARD SPHERE SCATTERING PHASE SHIFTS.  1087800600017 
ERR-ANALYS NO-INFORMATION                                         1087800600018 
HISTORY    (800131C)                                              1087800600019 
ENDBIB              17          0                                 1087800600020 
COMMON               1          3                                 1087800600021 
EN-RSL                                                            1087800600022 
PER-CENT                                                          1087800600023 
 0.01                                                             1087800600024 
ENDCOMMON            3          0                                 1087800600025 
DATA                 6         15                                 1087800600026 
DATA      1DATA      2DATA-MIN  3DATA-MAX  3DATA      4DATA      51087800600027 
KEV        NO-DIM     NO-DIM     NO-DIM     EV         EV         1087800600028 
   4.01     1.         0.5        1.5          0.5      1.0       1087800600029 
   8.84     1.         0.5        1.5          5.8      3.4       1087800600030 
  16.9      1.         0.5        1.5         1.7       0.4       1087800600031 
  19.1      1.         0.5        1.5          9.0      1.6       1087800600032 
  19.7      1.         0.5        1.5         31.5      5.6       1087800600033 
  26.53     1.         0.5        1.5         14.6      1.6       1087800600034 
  55.7      1.         0.5        1.5         61.2      2.3       1087800600035 
  56.4      1.         0.5        1.5         36.5      1.3       1087800600036 
  64.9      1.         0.5        1.5        129.6      3.8       1087800600037 
 104.6      1.         0.5        1.5        237.5      3.4       1087800600038 
 111.5      1.         0.5        1.5        245.0      3.2       1087800600039 
 124.2      1.         0.5        1.5         32.4      0.4       1087800600040 
 131.8      1.         0.5        1.5        352.7      3.6       1087800600041 
 150.4      1.         0.5        1.5        106.5      0.9       1087800600042 
 179.7      1.         0.5        1.5         93.0      0.6       1087800600043 
ENDDATA             17          0                                 1087800600044 
ENDSUBENT           43          0                                 1087800699999 
ENDENTRY             6          0                                 1087899999999 
