ENTRY            10909   19800621                             00001090900000001 
SUBENT        10909001   19800621                             00001090900100001 
BIB                 13         39                                 1090900100002 
INSTITUTE  (1USAORL)                                              1090900100003 
REFERENCE  (C,79KNOX,,677,7910)                                   1090900100004 
AUTHOR     (D.K.OLSEN,G.L.MORGAN,J.W.MCCONNELL)                   1090900100005 
TITLE      MEASUREMENT OF 238-U(N,N'GAMMA) CROSS SECTION.         1090900100006 
FACILITY   (LINAC) OAK RIDGE ELECTRON LINEAR ACCELERATOR WHITE    1090900100007 
            NEUTRON SOURCE.                                       1090900100008 
N-SOURCE   (EVAP) ELECTRONS ON TANTALUM, COLLIMATED TO A BEAM     1090900100009 
            DIAMETER OF 7-CM.                                     1090900100010 
DETECTOR   (GELI) GERMANIUM-LITHIUM 95-CM**3 TRUE COAXIAL DETECTOR1090900100011 
            COUNTING LOSSES CALIBRATED WITH CS-137 SOURCE.        1090900100012 
            EFFICIENCY CALIBRATED WITH STANDARD SOURCES TO        1090900100013 
            +/- 2 PERCENT.  ENCLOSED IN PB SHIELD.                1090900100014 
           PROTON RECOIL DETECTOR USING ALUMINIUM ABSORBER FOIL   1090900100015 
            BETWEEN TWO POLYETHYLENE RADIATOR FOILS.              1090900100016 
           (SOLST) PROTONS FROM RECOIL DETECTOR COUNTED WITH      1090900100017 
            0.30-MM THICK SILICON DETECTOR. AM-241 STANDARD SOURCE1090900100018 
            USED TO CALIBRATE DETECTOR AND VERIFY COUNTING LOSSES.1090900100019 
METHOD     (TOF) TIME OF FLIGHT WITH 20-METER FLIGHT PATH. BEAM   1090900100020 
            FILTER WITH 0.93 GM/SQ-CM B-10 TO PREVENT TIME        1090900100021 
            OVERLAP, 5.1-CM THICK CARBON TO PROVIDE ENERGY SCALE  1090900100022 
            VERTIFICATION, AND ELEVEN 1.27-CM THICK THORIUM PLATES1090900100023 
            TO REDUCE GAMMA FLASH.                                1090900100024 
MONITOR    (1-H-1(N,EL)1-H-1,,SIG)                                1090900100025 
CORRECTION CORRECTED FOR-                                         1090900100026 
            -CLOCK DEADTIME LOSS, LESS THAN 5-PERCENT             1090900100027 
            -COUNTING LOSS IN GELI DETECTOR, 10 PERCENT           1090900100028 
            -MULTIPLE SCATTERING, LESS THAN 5-PERCENT             1090900100029 
            -GAMMA RAY ATTENUATION, 5 PERCENT                     1090900100030 
            -NEUTRON FLUX ATTENUATION, 2 PERCENT                  1090900100031 
            -GAMMA-RAY SELF-ABSORPTION, 5 - 24 PERCENT            1090900100032 
ERR-ANALYS ERRORS DUE TO-                                         1090900100033 
            -NEUTRON FLUX UNCERTAINTY, LESS THAN 5 PERCENT        1090900100034 
            -STATISTICAL ERRORS                                   1090900100035 
            -UNCORRELATED UNCERTAINTIES IN COUNT EXTRACTION AND   1090900100036 
             PILEUP CORRECTION, 5 PERCENT                         1090900100037 
            -NORMALIZATION UNCERTAINTY, 6-PERCENT, NOT INCLUDED IN1090900100038 
             QUOTED ERROR.                                        1090900100039 
STATUS     (APRVD)  APPROVED BY D.K.OLSEN, 80/10/21.              1090900100040 
HISTORY    (800615C)                                              1090900100041 
ENDBIB              39          0                                 1090900100042 
NOCOMMON             0          0                                 1090900100043 
ENDSUBENT           42          0                                 1090900199999 
SUBENT        10909002   19800621                             00001090900200001 
BIB                  2          3                                 1090900200002 
REACTION   (92-U-238(N,INL)92-U-238,PAR,SIG,G)                    1090900200003 
SAMPLE     DIAMETER OF 11.11-CM, 0.76-MM THICK, 0.003760 ATOMS/B, 1090900200004 
            ENRICHED TO 99.92-PERCENT U-238.                      1090900200005 
ENDBIB               3          0                                 1090900200006 
NOCOMMON             0          0                                 1090900200007 
DATA                 5        721                                 1090900200008 
E          E          EN         DATA       DATA-ERR              1090900200009 
KEV        KEV        MEV        B          B                     1090900200010 
  448.6                1.071     -0.0013     0.0011               1090900200011 
  448.6                1.122      0.0033     0.0013               1090900200012 
  448.6                1.178      0.0095     0.0017               1090900200013 
  448.6                1.237      0.0189     0.0024               1090900200014 
  448.6                1.302      0.0260     0.0030               1090900200015 
  448.6                1.371      0.0329     0.0037               1090900200016 
  448.6                1.446      0.0310     0.0036               1090900200017 
  448.6                1.528      0.0310     0.0036               1090900200018 
  448.6                1.616      0.0305     0.0036               1090900200019 
  448.6                1.713      0.0367     0.0043               1090900200020 
  448.6                1.818      0.0336     0.0041               1090900200021 
  448.6                1.934      0.0412     0.0048               1090900200022 
  448.6                2.060      0.0401     0.0048               1090900200023 
  448.6                2.200      0.0378     0.0046               1090900200024 
  448.6                2.355      0.0376     0.0047               1090900200025 
  448.6                2.526      0.0325     0.0044               1090900200026 
  448.6                2.717      0.0332     0.0047               1090900200027 
  448.6                2.930      0.0311     0.0046               1090900200028 
  448.6                3.170      0.0398     0.0054               1090900200029 
  448.6                3.440      0.0368     0.0053               1090900200030 
  448.6                3.746      0.0359     0.0054               1090900200031 
  448.6                4.095      0.0434     0.0061               1090900200032 
  448.6                4.496      0.0427     0.0061               1090900200033 
  519.9                0.936      0.0011     0.0013               1090900200034 
  519.9                0.978      0.0031     0.0015               1090900200035 
  519.9                1.023      0.0052     0.0017               1090900200036 
  519.9                1.071      0.0076     0.0017               1090900200037 
  519.9                1.122      0.0084     0.0018               1090900200038 
  519.9                1.178      0.0085     0.0018               1090900200039 
  519.9                1.237      0.0104     0.0018               1090900200040 
  519.9                1.302      0.0120     0.0018               1090900200041 
  519.9                1.371      0.0149     0.0021               1090900200042 
  519.9                1.446      0.0172     0.0023               1090900200043 
  519.9                1.528      0.0141     0.0024               1090900200044 
  519.9                1.616      0.0166     0.0025               1090900200045 
  519.9                1.713      0.0172     0.0027               1090900200046 
  519.9                1.818      0.0152     0.0030               1090900200047 
  519.9                1.934      0.0187     0.0031               1090900200048 
  519.9                2.060      0.0184     0.0031               1090900200049 
  519.9                2.200      0.0208     0.0033               1090900200050 
  519.9                2.355      0.0198     0.0036               1090900200051 
  519.9                2.526      0.0261     0.0038               1090900200052 
  519.9                2.717      0.0303     0.0045               1090900200053 
  519.9                2.930      0.0268     0.0044               1090900200054 
  519.9                3.170      0.0294     0.0047               1090900200055 
  519.9                3.440      0.0360     0.0051               1090900200056 
  519.9                3.746      0.0335     0.0056               1090900200057 
  519.9                4.095      0.0415     0.0058               1090900200058 
  519.9                4.496      0.0435     0.0059               1090900200059 
  519.9                4.958      0.0453     0.0058               1090900200060 
  583.5                0.732     -0.0011     0.0011               1090900200061 
  583.5                0.761      0.0088     0.0013               1090900200062 
  583.5                0.792      0.0202     0.0017               1090900200063 
  583.5                0.825      0.0337     0.0023               1090900200064 
  583.5                0.859      0.0436     0.0028               1090900200065 
  583.5                0.896      0.0575     0.0035               1090900200066 
  583.5                0.936      0.0637     0.0038               1090900200067 
  583.5                0.978      0.0759     0.0045               1090900200068 
  583.5                1.023      0.0907     0.0053               1090900200069 
  583.5                1.071      0.0916     0.0053               1090900200070 
  583.5                1.122      0.0967     0.0056               1090900200071 
  583.5                1.178      0.0989     0.0057               1090900200072 
  583.5                1.237      0.0968     0.0056               1090900200073 
  583.5                1.302      0.0913     0.0053               1090900200074 
  583.5                1.371      0.0954     0.0056               1090900200075 
  583.5                1.446      0.0940     0.0056               1090900200076 
  583.5                1.528      0.0921     0.0055               1090900200077 
  583.5                1.616      0.0889     0.0054               1090900200078 
  583.5                1.713      0.0944     0.0057               1090900200079 
  583.5                1.818      0.0974     0.0060               1090900200080 
  583.5                1.934      0.0979     0.0060               1090900200081 
  583.5                2.060      0.1007     0.0062               1090900200082 
  583.5                2.200      0.0949     0.0060               1090900200083 
  583.5                2.355      0.1004     0.0064               1090900200084 
  583.5                2.526      0.0900     0.0060               1090900200085 
  583.5                2.717      0.1087     0.0071               1090900200086 
  583.5                2.930      0.0957     0.0066               1090900200087 
  583.5                3.170      0.0993     0.0069               1090900200088 
  583.5                3.440      0.1006     0.0070               1090900200089 
  583.5                3.746      0.1058     0.0076               1090900200090 
  583.5                4.095      0.1071     0.0077               1090900200091 
  583.5                4.496      0.1140     0.0081               1090900200092 
  583.5                4.958      0.1037     0.0076               1090900200093 
  635.2                0.655     -0.0003     0.0011               1090900200094 
  635.2                0.679      0.0122     0.0014               1090900200095 
  635.2                0.705      0.0501     0.0031               1090900200096 
  635.2                0.732      0.0837     0.0048               1090900200097 
  635.2                0.761      0.1088     0.0060               1090900200098 
  635.2                0.792      0.1276     0.0070               1090900200099 
  635.2                0.825      0.1478     0.0080               1090900200100 
  635.2                0.859      0.1638     0.0088               1090900200101 
  635.2                0.896      0.1727     0.0092               1090900200102 
  635.2                0.936      0.1880     0.0100               1090900200103 
  635.2                0.978      0.1939     0.0104               1090900200104 
  635.2                1.023      0.2041     0.0109               1090900200105 
  635.2                1.071      0.2072     0.0111               1090900200106 
  635.2                1.122      0.1940     0.0104               1090900200107 
  635.2                1.178      0.1935     0.0103               1090900200108 
  635.2                1.237      0.1808     0.0097               1090900200109 
  635.2                1.302      0.1730     0.0093               1090900200110 
  635.2                1.371      0.1672     0.0091               1090900200111 
  635.2                1.446      0.1555     0.0085               1090900200112 
  635.2                1.528      0.1474     0.0081               1090900200113 
  635.2                1.616      0.1295     0.0073               1090900200114 
  635.2                1.713      0.1295     0.0074               1090900200115 
  635.2                1.818      0.1283     0.0074               1090900200116 
  635.2                1.934      0.1316     0.0077               1090900200117 
  635.2                2.060      0.1172     0.0070               1090900200118 
  635.2                2.200      0.1110     0.0069               1090900200119 
  635.2                2.355      0.1110     0.0071               1090900200120 
  635.2                2.526      0.1019     0.0068               1090900200121 
  635.2                2.717      0.1041     0.0072               1090900200122 
  635.2                2.930      0.1032     0.0074               1090900200123 
  635.2                3.170      0.0837     0.0064               1090900200124 
  635.2                3.440      0.0867     0.0070               1090900200125 
  635.2                3.746      0.0874     0.0072               1090900200126 
  635.2                4.095      0.0885     0.0075               1090900200127 
  635.2                4.496      0.0827     0.0071               1090900200128 
  635.2                4.958      0.0815     0.0072               1090900200129 
  678.7      680.1     0.655     -0.0017     0.0011               1090900200130 
  678.7      680.1     0.679      0.0073     0.0013               1090900200131 
  678.7      680.1     0.705      0.0292     0.0020               1090900200132 
  678.7      680.1     0.732      0.0522     0.0032               1090900200133 
  678.7      680.1     0.761      0.0648     0.0038               1090900200134 
  678.7      680.1     0.792      0.0809     0.0047               1090900200135 
  678.7      680.1     0.825      0.0910     0.0052               1090900200136 
  678.7      680.1     0.859      0.1010     0.0057               1090900200137 
  678.7      680.1     0.896      0.1075     0.0060               1090900200138 
  678.7      680.1     0.936      0.1157     0.0064               1090900200139 
  678.7      680.1     0.978      0.1237     0.0069               1090900200140 
  678.7      680.1     1.023      0.1321     0.0073               1090900200141 
  678.7      680.1     1.071      0.1382     0.0076               1090900200142 
  678.7      680.1     1.122      0.1323     0.0073               1090900200143 
  678.7      680.1     1.178      0.1342     0.0074               1090900200144 
  678.7      680.1     1.237      0.1320     0.0073               1090900200145 
  678.7      680.1     1.302      0.1256     0.0070               1090900200146 
  678.7      680.1     1.371      0.1269     0.0072               1090900200147 
  678.7      680.1     1.446      0.1195     0.0069               1090900200148 
  678.7      680.1     1.528      0.1136     0.0067               1090900200149 
  678.7      680.1     1.616      0.1099     0.0066               1090900200150 
  678.7      680.1     1.713      0.1116     0.0068               1090900200151 
  678.7      680.1     1.818      0.1166     0.0072               1090900200152 
  678.7      680.1     1.934      0.1177     0.0073               1090900200153 
  678.7      680.1     2.060      0.1179     0.0074               1090900200154 
  678.7      680.1     2.200      0.1203     0.0077               1090900200155 
  678.7      680.1     2.355      0.1221     0.0081               1090900200156 
  678.7      680.1     2.526      0.1074     0.0076               1090900200157 
  678.7      680.1     2.717      0.1105     0.0082               1090900200158 
  678.7      680.1     2.930      0.1165     0.0083               1090900200159 
  678.7      680.1     3.170      0.1095     0.0083               1090900200160 
  678.7      680.1     3.440      0.1151     0.0088               1090900200161 
  678.7      680.1     3.746      0.1213     0.0095               1090900200162 
  678.7      680.1     4.095      0.1229     0.0098               1090900200163 
  678.7      680.1     4.496      0.1174     0.0096               1090900200164 
  678.7      680.1     4.958      0.1078     0.0092               1090900200165 
  687.0                0.705      0.0003     0.0011               1090900200166 
  687.0                0.732      0.0017     0.0006               1090900200167 
  687.0                0.761      0.0128     0.0012               1090900200168 
  687.0                0.792      0.0319     0.0022               1090900200169 
  687.0                0.825      0.0440     0.0028               1090900200170 
  687.0                0.859      0.0571     0.0035               1090900200171 
  687.0                0.896      0.0711     0.0042               1090900200172 
  687.0                0.936      0.0843     0.0049               1090900200173 
  687.0                0.978      0.0968     0.0056               1090900200174 
  687.0                1.023      0.1121     0.0064               1090900200175 
  687.0                1.071      0.1196     0.0068               1090900200176 
  687.0                1.122      0.1199     0.0068               1090900200177 
  687.0                1.178      0.1211     0.0069               1090900200178 
  687.0                1.237      0.1223     0.0069               1090900200179 
  687.0                1.302      0.1186     0.0068               1090900200180 
  687.0                1.371      0.1179     0.0068               1090900200181 
  687.0                1.446      0.1065     0.0069               1090900200182 
  687.0                1.528      0.1028     0.0061               1090900200183 
  687.0                1.616      0.1012     0.0061               1090900200184 
  687.0                1.713      0.1008     0.0062               1090900200185 
  687.0                1.818      0.0997     0.0062               1090900200186 
  687.0                1.934      0.1025     0.0064               1090900200187 
  687.0                2.060      0.0974     0.0062               1090900200188 
  687.0                2.200      0.1002     0.0065               1090900200189 
  687.0                2.355      0.0991     0.0066               1090900200190 
  687.0                2.526      0.0938     0.0065               1090900200191 
  687.0                2.717      0.0909     0.0067               1090900200192 
  687.0                2.930      0.0967     0.0070               1090900200193 
  687.0                3.170      0.0835     0.0067               1090900200194 
  687.0                3.440      0.0807     0.0068               1090900200195 
  687.0                3.746      0.0960     0.0078               1090900200196 
  687.0                4.095      0.0826     0.0074               1090900200197 
  687.0                4.496      0.0903     0.0077               1090900200198 
  687.0                4.958      0.0802     0.0073               1090900200199 
  748.6                1.023      0.0006     0.0009               1090900200200 
  748.6                1.071      0.0025     0.0010               1090900200201 
  748.6                1.122      0.0040     0.0011               1090900200202 
  748.6                1.178      0.0069     0.0012               1090900200203 
  748.6                1.237      0.0087     0.0013               1090900200204 
  748.6                1.302      0.0099     0.0014               1090900200205 
  748.6                1.371      0.0130     0.0017               1090900200206 
  748.6                1.446      0.0146     0.0017               1090900200207 
  748.6                1.528      0.0160     0.0019               1090900200208 
  748.6                1.616      0.0169     0.0020               1090900200209 
  748.6                1.713      0.0156     0.0020               1090900200210 
  748.6                1.818      0.0153     0.0022               1090900200211 
  748.6                1.934      0.0134     0.0022               1090900200212 
  748.6                2.060      0.0140     0.0023               1090900200213 
  748.6                2.200      0.0115     0.0024               1090900200214 
  748.6                2.355      0.0108     0.0025               1090900200215 
  748.6                2.526      0.0129     0.0027               1090900200216 
  748.6                2.717      0.0118     0.0030               1090900200217 
  748.6                2.930      0.0163     0.0032               1090900200218 
  748.6                3.170      0.0117     0.0033               1090900200219 
  748.6                3.440      0.0141     0.0035               1090900200220 
  748.6                3.746      0.0181     0.0040               1090900200221 
  748.6                4.095      0.0184     0.0041               1090900200222 
  748.6                4.496      0.0139     0.0041               1090900200223 
  748.6                4.958      0.0177     0.0041               1090900200224 
  817.9                0.936     -0.0001     0.0007               1090900200225 
  817.9                0.978      0.0073     0.0009               1090900200226 
  817.9                1.023      0.0276     0.0018               1090900200227 
  817.9                1.071      0.0407     0.0025               1090900200228 
  817.9                1.122      0.0489     0.0029               1090900200229 
  817.9                1.178      0.0537     0.0032               1090900200230 
  817.9                1.237      0.0510     0.0030               1090900200231 
  817.9                1.302      0.0507     0.0031               1090900200232 
  817.9                1.371      0.0530     0.0032               1090900200233 
  817.9                1.446      0.0479     0.0031               1090900200234 
  817.9                1.528      0.0457     0.0030               1090900200235 
  817.9                1.616      0.0443     0.0030               1090900200236 
  817.9                1.713      0.0375     0.0060               1090900200237 
  817.9                1.818      0.0354     0.0058               1090900200238 
  817.9                1.934      0.0268     0.0046               1090900200239 
  817.9                2.060      0.0335     0.0055               1090900200240 
  817.9                2.200      0.0272     0.0047               1090900200241 
  817.9                2.355      0.0256     0.0046               1090900200242 
  817.9                2.526      0.0178     0.0038               1090900200243 
  817.9                2.717      0.0210     0.0044               1090900200244 
  817.9                2.930      0.0217     0.0045               1090900200245 
  817.9                3.170      0.0268     0.0052               1090900200246 
  817.9                3.440      0.0208     0.0046               1090900200247 
  817.9                3.746      0.0246     0.0053               1090900200248 
  817.9                4.095      0.0165     0.0046               1090900200249 
  817.9                4.496      0.0178     0.0048               1090900200250 
  817.9                4.958      0.0159     0.0046               1090900200251 
  882.1                0.896     -0.0011     0.0005               1090900200252 
  882.1                0.936      0.0055     0.0013               1090900200253 
  882.1                0.978      0.0218     0.0016               1090900200254 
  882.1                1.023      0.0332     0.0020               1090900200255 
  882.1                1.071      0.0421     0.0025               1090900200256 
  882.1                1.122      0.0474     0.0045               1090900200257 
  882.1                1.178      0.0546     0.0031               1090900200258 
  882.1                1.237      0.0563     0.0029               1090900200259 
  882.1                1.302      0.0524     0.0030               1090900200260 
  882.1                1.371      0.0535     0.0039               1090900200261 
  882.1                1.446      0.0490     0.0036               1090900200262 
  882.1                1.528      0.0466     0.0041               1090900200263 
  882.1                1.616      0.0415     0.0034               1090900200264 
  882.1                1.713      0.0364     0.0035               1090900200265 
  882.1                1.818      0.0358     0.0048               1090900200266 
  882.1                1.934      0.0272     0.0048               1090900200267 
  882.1                2.060      0.0212     0.0034               1090900200268 
  882.1                2.200      0.0162     0.0032               1090900200269 
  882.1                2.355      0.0166     0.0034               1090900200270 
  882.1                2.526      0.0160     0.0037               1090900200271 
  882.1                2.717      0.0139     0.0041               1090900200272 
  882.1                2.930      0.0137     0.0043               1090900200273 
  882.1                3.170      0.0198     0.0045               1090900200274 
  882.1                3.440      0.0196     0.0048               1090900200275 
  882.1                3.746      0.0198     0.0053               1090900200276 
  882.1                4.095      0.0183     0.0055               1090900200277 
  882.1                4.496      0.0219     0.0056               1090900200278 
  882.1                4.958      0.0173     0.0055               1090900200279 
  885.9                0.896      0.0003     0.0009               1090900200280 
  885.9                0.936      0.0136     0.0018               1090900200281 
  885.9                0.978      0.0578     0.0037               1090900200282 
  885.9                1.023      0.1009     0.0059               1090900200283 
  885.9                1.071      0.1297     0.0076               1090900200284 
  885.9                1.122      0.1388     0.0114               1090900200285 
  885.9                1.178      0.1507     0.0091               1090900200286 
  885.9                1.237      0.1479     0.0100               1090900200287 
  885.9                1.302      0.1451     0.0088               1090900200288 
  885.9                1.371      0.1439     0.0090               1090900200289 
  885.9                1.446      0.1390     0.0093               1090900200290 
  885.9                1.528      0.1237     0.0081               1090900200291 
  885.9                1.616      0.1113     0.0071               1090900200292 
  885.9                1.713      0.1066     0.0068               1090900200293 
  885.9                1.818      0.0960     0.0074               1090900200294 
  885.9                1.934      0.0880     0.0073               1090900200295 
  885.9                2.060      0.0686     0.0047               1090900200296 
  885.9                2.200      0.0676     0.0055               1090900200297 
  885.9                2.355      0.0629     0.0055               1090900200298 
  885.9                2.526      0.0558     0.0054               1090900200299 
  885.9                2.717      0.0669     0.0064               1090900200300 
  885.9                2.930      0.0588     0.0061               1090900200301 
  885.9                3.170      0.0689     0.0067               1090900200302 
  885.9                3.440      0.0647     0.0069               1090900200303 
  885.9                3.746      0.0622     0.0073               1090900200304 
  885.9                4.095      0.0639     0.0076               1090900200305 
  885.9                4.496      0.0624     0.0076               1090900200306 
  885.9                4.958      0.0584     0.0074               1090900200307 
  888.9                1.023      0.0000     0.0016               1090900200308 
  888.9                1.071      0.0087     0.0020               1090900200309 
  888.9                1.122      0.0094     0.0023               1090900200310 
  888.9                1.178      0.0213     0.0034               1090900200311 
  888.9                1.237      0.0332     0.0060               1090900200312 
  888.9                1.302      0.0293     0.0038               1090900200313 
  888.9                1.371      0.0300     0.0039               1090900200314 
  888.9                1.446      0.0313     0.0055               1090900200315 
  888.9                1.528      0.0256     0.0039               1090900200316 
  888.9                1.616      0.0205     0.0032               1090900200317 
  888.9                1.713      0.0181     0.0031               1090900200318 
  888.9                1.818      0.0187     0.0032               1090900200319 
  888.9                1.934      0.0127     0.0061               1090900200320 
  905.1                0.936     -0.0002     0.0007               1090900200321 
  905.1                0.978      0.0114     0.0015               1090900200322 
  905.1                1.023      0.0248     0.0027               1090900200323 
  905.1                1.071      0.0357     0.0038               1090900200324 
  905.1                1.122      0.0435     0.0046               1090900200325 
  905.1                1.178      0.0516     0.0054               1090900200326 
  905.1                1.237      0.0541     0.0056               1090900200327 
  905.1                1.302      0.0524     0.0055               1090900200328 
  905.1                1.371      0.0581     0.0061               1090900200329 
  905.1                1.446      0.0534     0.0057               1090900200330 
  905.1                1.528      0.0481     0.0052               1090900200331 
  905.1                1.616      0.0475     0.0051               1090900200332 
  905.1                1.713      0.0430     0.0048               1090900200333 
  905.1                1.818      0.0408     0.0046               1090900200334 
  905.1                1.934      0.0353     0.0042               1090900200335 
  905.1                2.060      0.0356     0.0042               1090900200336 
  905.1                2.200      0.0327     0.0041               1090900200337 
  905.1                2.355      0.0336     0.0043               1090900200338 
  905.1                2.526      0.0299     0.0040               1090900200339 
  905.1                2.717      0.0357     0.0048               1090900200340 
  905.1                2.930      0.0304     0.0044               1090900200341 
  905.1                3.170      0.0386     0.0052               1090900200342 
  905.1                3.440      0.0326     0.0049               1090900200343 
  905.1                3.746      0.0421     0.0059               1090900200344 
  905.1                4.095      0.0359     0.0054               1090900200345 
  905.1                4.496      0.0334     0.0054               1090900200346 
  905.1                4.958      0.0329     0.0053               1090900200347 
  911.1      911.9     1.023      0.0007     0.0008               1090900200348 
  911.1      911.9     1.071      0.0024     0.0009               1090900200349 
  911.1      911.9     1.122      0.0104     0.0014               1090900200350 
  911.1      911.9     1.178      0.0171     0.0020               1090900200351 
  911.1      911.9     1.237      0.0199     0.0023               1090900200352 
  911.1      911.9     1.302      0.0227     0.0026               1090900200353 
  911.1      911.9     1.371      0.0279     0.0031               1090900200354 
  911.1      911.9     1.446      0.0295     0.0033               1090900200355 
  911.1      911.9     1.528      0.0307     0.0035               1090900200356 
  911.1      911.9     1.616      0.0363     0.0041               1090900200357 
  911.1      911.9     1.713      0.0321     0.0037               1090900200358 
  911.1      911.9     1.818      0.0344     0.0040               1090900200359 
  911.1      911.9     1.934      0.0336     0.0040               1090900200360 
  911.1      911.9     2.060      0.0313     0.0038               1090900200361 
  911.1      911.9     2.200      0.0341     0.0042               1090900200362 
  911.1      911.9     2.355      0.0321     0.0041               1090900200363 
  911.1      911.9     2.526      0.0380     0.0047               1090900200364 
  911.1      911.9     2.717      0.0392     0.0051               1090900200365 
  911.1      911.9     2.930      0.0357     0.0048               1090900200366 
  911.1      911.9     3.170      0.0295     0.0044               1090900200367 
  911.1      911.9     3.440      0.0282     0.0045               1090900200368 
  911.1      911.9     3.746      0.0394     0.0056               1090900200369 
  911.1      911.9     4.095      0.0380     0.0056               1090900200370 
  911.1      911.9     4.496      0.0356     0.0055               1090900200371 
  911.1      911.9     4.958      0.0344     0.0054               1090900200372 
  921.4                0.936      0.0005     0.0006               1090900200373 
  921.4                0.978      0.0032     0.0007               1090900200374 
  921.4                1.023      0.0165     0.0013               1090900200375 
  921.4                1.071      0.0237     0.0016               1090900200376 
  921.4                1.122      0.0294     0.0019               1090900200377 
  921.4                1.178      0.0307     0.0020               1090900200378 
  921.4                1.237      0.0337     0.0021               1090900200379 
  921.4                1.302      0.0318     0.0021               1090900200380 
  921.4                1.371      0.0309     0.0021               1090900200381 
  921.4                1.446      0.0282     0.0021               1090900200382 
  921.4                1.528      0.0270     0.0021               1090900200383 
  921.4                1.616      0.0246     0.0021               1090900200384 
  921.4                1.713      0.0199     0.0020               1090900200385 
  921.4                1.818      0.0198     0.0021               1090900200386 
  921.4                1.934      0.0144     0.0021               1090900200387 
  921.4                2.060      0.0099     0.0020               1090900200388 
  921.4                2.200      0.0127     0.0022               1090900200389 
  921.4                2.355      0.0089     0.0023               1090900200390 
  921.4                2.526      0.0083     0.0024               1090900200391 
  921.4                2.717      0.0111     0.0028               1090900200392 
  921.4                2.930      0.0118     0.0029               1090900200393 
  921.4                3.170      0.0083     0.0030               1090900200394 
  921.4                3.440      0.0102     0.0032               1090900200395 
  921.4                3.746      0.0119     0.0037               1090900200396 
  921.4                4.095      0.0167     0.0038               1090900200397 
  921.4                4.496      0.0068     0.0038               1090900200398 
  921.4                4.958      0.0019     0.0035               1090900200399 
  952.6                0.978     -0.0008     0.0007               1090900200400 
  952.6                1.023      0.0176     0.0014               1090900200401 
  952.6                1.071      0.0360     0.0022               1090900200402 
  952.6                1.122      0.0471     0.0028               1090900200403 
  952.6                1.178      0.0569     0.0033               1090900200404 
  952.6                1.237      0.0641     0.0036               1090900200405 
  952.6                1.302      0.0649     0.0037               1090900200406 
  952.6                1.371      0.0654     0.0038               1090900200407 
  952.6                1.446      0.0612     0.0039               1090900200408 
  952.6                1.528      0.0578     0.0035               1090900200409 
  952.6                1.616      0.0529     0.0033               1090900200410 
  952.6                1.713      0.0544     0.0035               1090900200411 
  952.6                1.818      0.0531     0.0035               1090900200412 
  952.6                1.934      0.0486     0.0034               1090900200413 
  952.6                2.060      0.0434     0.0032               1090900200414 
  952.6                2.200      0.0405     0.0032               1090900200415 
  952.6                2.355      0.0396     0.0034               1090900200416 
  952.6                2.526      0.0344     0.0034               1090900200417 
  952.6                2.717      0.0342     0.0037               1090900200418 
  952.6                2.930      0.0319     0.0037               1090900200419 
  952.6                3.170      0.0365     0.0039               1090900200420 
  952.6                3.440      0.0245     0.0038               1090900200421 
  952.6                3.746      0.0333     0.0046               1090900200422 
  952.6                4.095      0.0298     0.0044               1090900200423 
  952.6                4.496      0.0296     0.0045               1090900200424 
  952.6                4.958      0.0295     0.0045               1090900200425 
  957.3                1.071      0.0011     0.0007               1090900200426 
  957.3                1.122      0.0043     0.0008               1090900200427 
  957.3                1.178      0.0127     0.0011               1090900200428 
  957.3                1.237      0.0203     0.0015               1090900200429 
  957.3                1.302      0.0250     0.0017               1090900200430 
  957.3                1.371      0.0327     0.0021               1090900200431 
  957.3                1.446      0.0361     0.0024               1090900200432 
  957.3                1.528      0.0377     0.0025               1090900200433 
  957.3                1.616      0.0390     0.0025               1090900200434 
  957.3                1.713      0.0434     0.0029               1090900200435 
  957.3                1.818      0.0469     0.0032               1090900200436 
  957.3                1.934      0.0461     0.0032               1090900200437 
  957.3                2.060      0.0437     0.0032               1090900200438 
  957.3                2.200      0.0456     0.0034               1090900200439 
  957.3                2.355      0.0445     0.0035               1090900200440 
  957.3                2.526      0.0366     0.0033               1090900200441 
  957.3                2.717      0.0469     0.0040               1090900200442 
  957.3                2.930      0.0404     0.0038               1090900200443 
  957.3                3.170      0.0417     0.0039               1090900200444 
  957.3                3.440      0.0379     0.0040               1090900200445 
  957.3                3.746      0.0444     0.0045               1090900200446 
  957.3                4.095      0.0466     0.0047               1090900200447 
  957.3                4.496      0.0483     0.0049               1090900200448 
  957.3                4.958      0.0465     0.0048               1090900200449 
  966.3                0.936      0.0000     0.0006               1090900200450 
  966.3                0.978      0.0018     0.0007               1090900200451 
  966.3                1.023      0.0070     0.0009               1090900200452 
  966.3                1.071      0.0087     0.0009               1090900200453 
  966.3                1.122      0.0106     0.0010               1090900200454 
  966.3                1.178      0.0117     0.0011               1090900200455 
  966.3                1.237      0.0122     0.0011               1090900200456 
  966.3                1.302      0.0137     0.0011               1090900200457 
  966.3                1.371      0.0158     0.0014               1090900200458 
  966.3                1.446      0.0172     0.0016               1090900200459 
  966.3                1.528      0.0151     0.0016               1090900200460 
  966.3                1.616      0.0138     0.0016               1090900200461 
  966.3                1.713      0.0140     0.0018               1090900200462 
  966.3                1.818      0.0138     0.0019               1090900200463 
  966.3                1.934      0.0151     0.0020               1090900200464 
  966.3                2.060      0.0136     0.0020               1090900200465 
  966.3                2.200      0.0138     0.0022               1090900200466 
  966.3                2.355      0.0128     0.0023               1090900200467 
  966.3                2.526      0.0101     0.0024               1090900200468 
  966.3                2.717      0.0144     0.0028               1090900200469 
  966.3                2.930      0.0127     0.0029               1090900200470 
  966.3                3.170      0.0138     0.0030               1090900200471 
  966.3                3.440      0.0160     0.0033               1090900200472 
  966.3                3.746      0.0169     0.0037               1090900200473 
  966.3                4.095      0.0159     0.0038               1090900200474 
  966.3                4.496      0.0176     0.0039               1090900200475 
  966.3                4.958      0.0224     0.0040               1090900200476 
  992.4                1.023      0.0010     0.0009               1090900200477 
  992.4                1.071      0.0071     0.0011               1090900200478 
  992.4                1.122      0.0155     0.0014               1090900200479 
  992.4                1.178      0.0194     0.0015               1090900200480 
  992.4                1.237      0.0215     0.0016               1090900200481 
  992.4                1.302      0.0220     0.0017               1090900200482 
  992.4                1.371      0.0259     0.0020               1090900200483 
  992.4                1.446      0.0235     0.0021               1090900200484 
  992.4                1.528      0.0248     0.0023               1090900200485 
  992.4                1.616      0.0205     0.0024               1090900200486 
  992.4                1.713      0.0215     0.0024               1090900200487 
  992.4                1.818      0.0130     0.0024               1090900200488 
  992.4                1.934      0.0124     0.0025               1090900200489 
  992.4                2.060      0.0096     0.0025               1090900200490 
  992.4                2.200      0.0064     0.0027               1090900200491 
  992.4                2.355      0.0097     0.0030               1090900200492 
  992.4                2.526      0.0104     0.0031               1090900200493 
  992.4                2.717      0.0013     0.0036               1090900200494 
  992.4                2.930      0.0009     0.0038               1090900200495 
  992.4                3.170      0.0079     0.0039               1090900200496 
  992.4                3.440      0.0000     0.0042               1090900200497 
  992.4                3.746      0.0121     0.0046               1090900200498 
  992.4                4.095      0.0068     0.0049               1090900200499 
  992.4                4.496      0.0048     0.0049               1090900200500 
 1014.4     1015.3     1.023      0.0003     0.0008               1090900200501 
 1014.4     1015.3     1.071      0.0145     0.0013               1090900200502 
 1014.4     1015.3     1.122      0.0543     0.0031               1090900200503 
 1014.4     1015.3     1.178      0.0935     0.0051               1090900200504 
 1014.4     1015.3     1.237      0.1131     0.0061               1090900200505 
 1014.4     1015.3     1.302      0.1340     0.0072               1090900200506 
 1014.4     1015.3     1.371      0.1545     0.0083               1090900200507 
 1014.4     1015.3     1.446      0.1594     0.0086               1090900200508 
 1014.4     1015.3     1.528      0.1647     0.0089               1090900200509 
 1014.4     1015.3     1.616      0.1711     0.0089               1090900200510 
 1014.4     1015.3     1.713      0.1836     0.0100               1090900200511 
 1014.4     1015.3     1.818      0.1832     0.0101               1090900200512 
 1014.4     1015.3     1.934      0.1790     0.0100               1090900200513 
 1014.4     1015.3     2.060      0.1777     0.0100               1090900200514 
 1014.4     1015.3     2.200      0.1711     0.0098               1090900200515 
 1014.4     1015.3     2.355      0.1714     0.0100               1090900200516 
 1014.4     1015.3     2.526      0.1610     0.0097               1090900200517 
 1014.4     1015.3     2.717      0.1657     0.0103               1090900200518 
 1014.4     1015.3     2.930      0.1483     0.0090               1090900200519 
 1014.4     1015.3     3.170      0.1567     0.0096               1090900200520 
 1014.4     1015.3     3.440      0.1545     0.0097               1090900200521 
 1014.4     1015.3     3.746      0.1725     0.0108               1090900200522 
 1014.4     1015.3     4.095      0.1868     0.0118               1090900200523 
 1014.4     1015.3     4.496      0.1795     0.0115               1090900200524 
 1014.4     1015.3     4.958      0.1760     0.0112               1090900200525 
 1019.3     1020.7     1.122      0.0003     0.0007               1090900200526 
 1019.3     1020.7     1.178      0.0056     0.0011               1090900200527 
 1019.3     1020.7     1.237      0.0128     0.0021               1090900200528 
 1019.3     1020.7     1.302      0.0189     0.0030               1090900200529 
 1019.3     1020.7     1.371      0.0276     0.0043               1090900200530 
 1019.3     1020.7     1.446      0.0314     0.0049               1090900200531 
 1019.3     1020.7     1.528      0.0355     0.0056               1090900200532 
 1019.3     1020.7     1.616      0.0404     0.0063               1090900200533 
 1019.3     1020.7     1.713      0.0412     0.0065               1090900200534 
 1019.3     1020.7     1.818      0.0469     0.0074               1090900200535 
 1019.3     1020.7     1.934      0.0429     0.0068               1090900200536 
 1019.3     1020.7     2.060      0.0425     0.0068               1090900200537 
 1019.3     1020.7     2.200      0.0455     0.0072               1090900200538 
 1019.3     1020.7     2.355      0.0443     0.0071               1090900200539 
 1019.3     1020.7     2.526      0.0411     0.0068               1090900200540 
 1019.3     1020.7     2.717      0.0432     0.0072               1090900200541 
 1019.3     1020.7     2.930      0.0383     0.0065               1090900200542 
 1019.3     1020.7     3.170      0.0375     0.0065               1090900200543 
 1019.3     1020.7     3.440      0.0440     0.0075               1090900200544 
 1019.3     1020.7     3.746      0.0469     0.0081               1090900200545 
 1019.3     1020.7     4.095      0.0478     0.0083               1090900200546 
 1019.3     1020.7     4.496      0.0529     0.0090               1090900200547 
 1019.3     1020.7     4.958      0.0542     0.0092               1090900200548 
 1037.3                1.023      0.0011     0.0008               1090900200549 
 1037.3                1.071      0.0097     0.0011               1090900200550 
 1037.3                1.122      0.0176     0.0015               1090900200551 
 1037.3                1.178      0.0246     0.0018               1090900200552 
 1037.3                1.237      0.0289     0.0020               1090900200553 
 1037.3                1.302      0.0280     0.0020               1090900200554 
 1037.3                1.371      0.0295     0.0021               1090900200555 
 1037.3                1.446      0.0314     0.0023               1090900200556 
 1037.3                1.528      0.0257     0.0022               1090900200557 
 1037.3                1.616      0.0214     0.0021               1090900200558 
 1037.3                1.713      0.0197     0.0022               1090900200559 
 1037.3                1.818      0.0154     0.0022               1090900200560 
 1037.3                1.934      0.0084     0.0022               1090900200561 
 1037.3                2.060      0.0084     0.0022               1090900200562 
 1037.3                2.200      0.0070     0.0023               1090900200563 
 1037.3                2.355      0.0036     0.0025               1090900200564 
 1037.3                2.526      0.0025     0.0026               1090900200565 
 1037.3                2.717      0.0000     0.0030               1090900200566 
 1037.3                2.930      0.0059     0.0032               1090900200567 
 1037.3                3.170      0.0000     0.0035               1090900200568 
 1037.3                3.440      0.0056     0.0036               1090900200569 
 1037.3                3.746      0.0074     0.0039               1090900200570 
 1037.3                4.095      0.0074     0.0041               1090900200571 
 1037.3                4.496      0.0095     0.0042               1090900200572 
 1060.3     1060.7     1.023      0.0005     0.0008               1090900200573 
 1060.3     1060.7     1.071      0.0073     0.0012               1090900200574 
 1060.3     1060.7     1.122      0.0297     0.0032               1090900200575 
 1060.3     1060.7     1.178      0.0609     0.0063               1090900200576 
 1060.3     1060.7     1.237      0.0803     0.0083               1090900200577 
 1060.3     1060.7     1.302      0.0928     0.0095               1090900200578 
 1060.3     1060.7     1.371      0.1056     0.0109               1090900200579 
 1060.3     1060.7     1.446      0.1117     0.0115               1090900200580 
 1060.3     1060.7     1.528      0.1169     0.0121               1090900200581 
 1060.3     1060.7     1.616      0.1164     0.0120               1090900200582 
 1060.3     1060.7     1.713      0.1244     0.0129               1090900200583 
 1060.3     1060.7     1.818      0.1310     0.0136               1090900200584 
 1060.3     1060.7     1.934      0.1251     0.0131               1090900200585 
 1060.3     1060.7     2.060      0.1226     0.0129               1090900200586 
 1060.3     1060.7     2.200      0.1084     0.0116               1090900200587 
 1060.3     1060.7     2.355      0.1040     0.0112               1090900200588 
 1060.3     1060.7     2.526      0.1017     0.0111               1090900200589 
 1060.3     1060.7     2.717      0.0892     0.0101               1090900200590 
 1060.3     1060.7     2.930      0.0862     0.0098               1090900200591 
 1060.3     1060.7     3.170      0.0908     0.0103               1090900200592 
 1060.3     1060.7     3.440      0.0821     0.0096               1090900200593 
 1060.3     1060.7     3.746      0.0981     0.0113               1090900200594 
 1060.3     1060.7     4.095      0.0938     0.0110               1090900200595 
 1060.3     1060.7     4.496      0.0860     0.0104               1090900200596 
 1060.3     1060.7     4.958      0.0903     0.0107               1090900200597 
 1083.8                1.122      0.0012     0.0008               1090900200598 
 1083.8                1.178      0.0081     0.0010               1090900200599 
 1083.8                1.237      0.0172     0.0014               1090900200600 
 1083.8                1.302      0.0237     0.0017               1090900200601 
 1083.8                1.371      0.0324     0.0022               1090900200602 
 1083.8                1.446      0.0327     0.0023               1090900200603 
 1083.8                1.528      0.0348     0.0024               1090900200604 
 1083.8                1.616      0.0378     0.0026               1090900200605 
 1083.8                1.713      0.0385     0.0028               1090900200606 
 1083.8                1.818      0.0411     0.0031               1090900200607 
 1083.8                1.934      0.0406     0.0031               1090900200608 
 1083.8                2.060      0.0400     0.0032               1090900200609 
 1083.8                2.200      0.0430     0.0034               1090900200610 
 1083.8                2.355      0.0361     0.0034               1090900200611 
 1083.8                2.526      0.0376     0.0036               1090900200612 
 1083.8                2.717      0.0320     0.0038               1090900200613 
 1083.8                2.930      0.0380     0.0040               1090900200614 
 1083.8                3.170      0.0366     0.0042               1090900200615 
 1083.8                3.440      0.0284     0.0042               1090900200616 
 1083.8                3.746      0.0310     0.0046               1090900200617 
 1083.8                4.095      0.0334     0.0049               1090900200618 
 1083.8                4.496      0.0316     0.0049               1090900200619 
 1083.8                4.958      0.0350     0.0051               1090900200620 
 1122.8     1124.2     1.122      0.0009     0.0007               1090900200621 
 1122.8     1124.2     1.178      0.0025     0.0014               1090900200622 
 1122.8     1124.2     1.237      0.0032     0.0014               1090900200623 
 1122.8     1124.2     1.302      0.0075     0.0011               1090900200624 
 1122.8     1124.2     1.371      0.0118     0.0013               1090900200625 
 1122.8     1124.2     1.446      0.0142     0.0015               1090900200626 
 1122.8     1124.2     1.528      0.0159     0.0016               1090900200627 
 1122.8     1124.2     1.616      0.0177     0.0017               1090900200628 
 1122.8     1124.2     1.713      0.0170     0.0019               1090900200629 
 1122.8     1124.2     1.818      0.0199     0.0021               1090900200630 
 1122.8     1124.2     1.934      0.0216     0.0023               1090900200631 
 1122.8     1124.2     2.060      0.0218     0.0024               1090900200632 
 1122.8     1124.2     2.200      0.0235     0.0025               1090900200633 
 1122.8     1124.2     2.355      0.0196     0.0025               1090900200634 
 1122.8     1124.2     2.526      0.0220     0.0029               1090900200635 
 1122.8     1124.2     2.717      0.0237     0.0032               1090900200636 
 1122.8     1124.2     2.930      0.0167     0.0032               1090900200637 
 1122.8     1124.2     3.170      0.0215     0.0035               1090900200638 
 1122.8     1124.2     3.440      0.0130     0.0035               1090900200639 
 1122.8     1124.2     3.746      0.0150     0.0039               1090900200640 
 1122.8     1124.2     4.095      0.0260     0.0044               1090900200641 
 1122.8     1124.2     4.496      0.0237     0.0044               1090900200642 
 1122.8     1124.2     4.958      0.0200     0.0043               1090900200643 
 1179.0                1.178      0.0014     0.0019               1090900200644 
 1179.0                1.237      0.0038     0.0019               1090900200645 
 1179.0                1.302      0.0123     0.0020               1090900200646 
 1179.0                1.371      0.0205     0.0023               1090900200647 
 1179.0                1.446      0.0240     0.0025               1090900200648 
 1179.0                1.528      0.0293     0.0027               1090900200649 
 1179.0                1.616      0.0280     0.0028               1090900200650 
 1179.0                1.713      0.0289     0.0031               1090900200651 
 1179.0                1.818      0.0311     0.0034               1090900200652 
 1179.0                1.934      0.0273     0.0036               1090900200653 
 1179.0                2.060      0.0260     0.0037               1090900200654 
 1179.0                2.200      0.0228     0.0040               1090900200655 
 1179.0                2.355      0.0194     0.0044               1090900200656 
 1179.0                2.526      0.0167     0.0047               1090900200657 
 1179.0                2.717      0.0189     0.0056               1090900200658 
 1179.0                2.930      0.0127     0.0059               1090900200659 
 1179.0                3.170      0.0143     0.0063               1090900200660 
 1179.0                3.440      0.0137     0.0067               1090900200661 
 1179.0                3.746      0.0169     0.0075               1090900200662 
 1179.0                4.095      0.0156     0.0079               1090900200663 
 1179.0                4.496      0.0094     0.0079               1090900200664 
 1179.0                4.958      0.0147     0.0077               1090900200665 
 1199.8                1.178      0.0002     0.0006               1090900200666 
 1199.8                1.237      0.0013     0.0006               1090900200667 
 1199.8                1.302      0.0055     0.0008               1090900200668 
 1199.8                1.371      0.0108     0.0010               1090900200669 
 1199.8                1.446      0.0136     0.0011               1090900200670 
 1199.8                1.528      0.0138     0.0012               1090900200671 
 1199.8                1.616      0.0125     0.0013               1090900200672 
 1199.8                1.713      0.0120     0.0015               1090900200673 
 1199.8                1.818      0.0126     0.0016               1090900200674 
 1199.8                1.934      0.0094     0.0018               1090900200675 
 1199.8                2.060      0.0072     0.0018               1090900200676 
 1199.8                2.200      0.0092     0.0020               1090900200677 
 1199.8                2.355      0.0053     0.0021               1090900200678 
 1199.8                2.526      0.0097     0.0023               1090900200679 
 1199.8                2.717      0.0097     0.0026               1090900200680 
 1199.8                2.930      0.0053     0.0028               1090900200681 
 1199.8                3.170      0.0063     0.0030               1090900200682 
 1199.8                3.440      0.0040     0.0031               1090900200683 
 1199.8                3.746      0.0045     0.0035               1090900200684 
 1199.8                4.095      0.0018     0.0037               1090900200685 
 1199.8                4.496      0.0049     0.0039               1090900200686 
 1199.8                4.958      0.0037     0.0038               1090900200687 
 1208.3                1.178      0.0005     0.0006               1090900200688 
 1208.3                1.237      0.0044     0.0008               1090900200689 
 1208.3                1.302      0.0091     0.0012               1090900200690 
 1208.3                1.371      0.0149     0.0018               1090900200691 
 1208.3                1.446      0.0210     0.0024               1090900200692 
 1208.3                1.528      0.0250     0.0028               1090900200693 
 1208.3                1.616      0.0261     0.0030               1090900200694 
 1208.3                1.713      0.0253     0.0030               1090900200695 
 1208.3                1.818      0.0258     0.0031               1090900200696 
 1208.3                1.934      0.0228     0.0030               1090900200697 
 1208.3                2.060      0.0232     0.0030               1090900200698 
 1208.3                2.200      0.0189     0.0028               1090900200699 
 1208.3                2.355      0.0174     0.0029               1090900200700 
 1208.3                2.526      0.0143     0.0028               1090900200701 
 1208.3                2.717      0.0196     0.0034               1090900200702 
 1208.3                2.930      0.0124     0.0031               1090900200703 
 1208.3                3.170      0.0140     0.0034               1090900200704 
 1208.3                3.440      0.0158     0.0036               1090900200705 
 1208.3                3.746      0.0187     0.0041               1090900200706 
 1208.3                4.095      0.0095     0.0039               1090900200707 
 1208.3                4.496      0.0158     0.0043               1090900200708 
 1208.3                4.958      0.0120     0.0041               1090900200709 
 1223.9                1.178      0.0004     0.0006               1090900200710 
 1223.9                1.237      0.0044     0.0008               1090900200711 
 1223.9                1.302      0.0105     0.0013               1090900200712 
 1223.9                1.371      0.0203     0.0023               1090900200713 
 1223.9                1.446      0.0255     0.0028               1090900200714 
 1223.9                1.528      0.0276     0.0031               1090900200715 
 1223.9                1.616      0.0318     0.0035               1090900200716 
 1223.9                1.713      0.0303     0.0035               1090900200717 
 1223.9                1.818      0.0327     0.0038               1090900200718 
 1223.9                1.934      0.0327     0.0038               1090900200719 
 1223.9                2.060      0.0292     0.0036               1090900200720 
 1223.9                2.200      0.0259     0.0034               1090900200721 
 1223.9                2.355      0.0242     0.0034               1090900200722 
 1223.9                2.526      0.0251     0.0035               1090900200723 
 1223.9                2.717      0.0261     0.0039               1090900200724 
 1223.9                2.930      0.0150     0.0032               1090900200725 
 1223.9                3.170      0.0191     0.0037               1090900200726 
 1223.9                3.440      0.0175     0.0037               1090900200727 
 1223.9                3.746      0.0184     0.0041               1090900200728 
 1223.9                4.095      0.0211     0.0045               1090900200729 
 1223.9                4.496      0.0169     0.0043               1090900200730 
 1223.9                4.958      0.0151     0.0042               1090900200731 
ENDDATA            723          0                                 1090900200732 
ENDSUBENT          731          0                                 1090900299999 
ENDENTRY             2          0                                 1090999999999 
