ENTRY            11410   19820813                             00001141000000001 
SUBENT        11410001   19820813                             00001141000100001 
BIB                  6          8                                 1141000100002 
INSTITUTE  (1USAANL)                                              1141000100003 
REFERENCE  (J,PR,118,514,60)                                      1141000100004 
           (W,HIBDON,6406) TABULATED DATA.                        1141000100005 
AUTHOR     (C.T.HIBDON)                                           1141000100006 
TITLE      NUCLEAR ENERGY LEVELS OF NA24.                         1141000100007 
STATUS     (SCSRS)                                                1141000100008 
HISTORY    (761016T) TRANSLATED FROM SCISRS                       1141000100009 
           (820813A) CONVERTED TO REACTION FORMALISM              1141000100010 
ENDBIB               8          0                                 1141000100011 
NOCOMMON             0          0                                 1141000100012 
ENDSUBENT           11          0                                 1141000199999 
SUBENT        11410002   19820813                             00001141000200001 
BIB                  2          2                                 1141000200002 
REACTION   (11-NA-23(N,TOT),,SIG)                                 1141000200003 
COMMENT    FLAT DETECTION.                                        1141000200004 
ENDBIB               2          0                                 1141000200005 
NOCOMMON             0          0                                 1141000200006 
DATA                 2        702                                 1141000200007 
EN         DATA                                                   1141000200008 
MEV        B                                                      1141000200009 
 1.00   -03 3.40   +00                                            1141000200010 
 1.10   -03 3.40   +00                                            1141000200011 
 1.20   -03 3.90   +00                                            1141000200012 
 1.45   -03 3.70   +00                                            1141000200013 
 1.70   -03 4.40   +00                                            1141000200014 
 1.95   -03 5.60   +00                                            1141000200015 
 2.00   -03 5.70   +00                                            1141000200016 
 2.20   -03 6.40   +00                                            1141000200017 
 2.45   -03 1.280  +01                                            1141000200018 
 2.50   -03 1.530  +01                                            1141000200019 
 2.55   -03 2.180  +01                                            1141000200020 
 2.65   -03 3.400  +01                                            1141000200021 
 2.70   -03 6.000  +01                                            1141000200022 
 2.75   -03 9.640  +01                                            1141000200023 
 2.80   -03 1.188  +02                                            1141000200024 
 2.85   -03 1.564  +02                                            1141000200025 
 2.90   -03 1.824  +02                                            1141000200026 
 2.95   -03 2.060  +02                                            1141000200027 
 3.00   -03 1.960  +02                                            1141000200028 
 3.10   -03 1.563  +02                                            1141000200029 
 3.15   -03 1.306  +02                                            1141000200030 
 3.20   -03 1.132  +02                                            1141000200031 
 3.25   -03 1.040  +02                                            1141000200032 
 3.30   -03 9.020  +01                                            1141000200033 
 3.35   -03 7.610  +01                                            1141000200034 
 3.40   -03 6.030  +01                                            1141000200035 
 3.50   -03 4.980  +01                                            1141000200036 
 3.60   -03 3.940  +01                                            1141000200037 
 3.70   -03 2.860  +01                                            1141000200038 
 3.80   -03 2.670  +01                                            1141000200039 
 4.00   -03 2.160  +01                                            1141000200040 
 4.25   -03 1.920  +01                                            1141000200041 
 4.50   -03 1.610  +01                                            1141000200042 
 5.00   -03 1.220  +01                                            1141000200043 
 5.50   -03 1.000  +01                                            1141000200044 
 6.00   -03 8.50   +00                                            1141000200045 
 6.50   -03 7.65   +00                                            1141000200046 
 7.00   -03 7.20   +00                                            1141000200047 
 7.50   -03 6.40   +00                                            1141000200048 
 8.00   -03 6.80   +00                                            1141000200049 
 8.50   -03 6.85   +00                                            1141000200050 
 9.00   -03 6.30   +00                                            1141000200051 
 9.50   -03 6.20   +00                                            1141000200052 
 1.000  -02 6.15   +00                                            1141000200053 
 1.000  -02 5.90   +00                                            1141000200054 
 1.050  -02 6.02   +00                                            1141000200055 
 1.050  -02 5.50   +00                                            1141000200056 
 1.050  -02 5.85   +00                                            1141000200057 
 1.100  -02 5.90   +00                                            1141000200058 
 1.100  -02 5.60   +00                                            1141000200059 
 1.100  -02 5.75   +00                                            1141000200060 
 1.150  -02 5.75   +00                                            1141000200061 
 1.200  -02 5.65   +00                                            1141000200062 
 1.200  -02 5.12   +00                                            1141000200063 
 1.200  -02 5.38   +00                                            1141000200064 
 1.250  -02 5.48   +00                                            1141000200065 
 1.300  -02 5.42   +00                                            1141000200066 
 1.300  -02 5.35   +00                                            1141000200067 
 1.350  -02 5.15   +00                                            1141000200068 
 1.400  -02 5.15   +00                                            1141000200069 
 1.400  -02 4.65   +00                                            1141000200070 
 1.400  -02 5.10   +00                                            1141000200071 
 1.450  -02 5.10   +00                                            1141000200072 
 1.450  -02 4.95   +00                                            1141000200073 
 1.500  -02 5.08   +00                                            1141000200074 
 1.500  -02 4.75   +00                                            1141000200075 
 1.500  -02 4.95   +00                                            1141000200076 
 1.550  -02 4.85   +00                                            1141000200077 
 1.550  -02 4.63   +00                                            1141000200078 
 1.600  -02 4.92   +00                                            1141000200079 
 1.600  -02 4.80   +00                                            1141000200080 
 1.650  -02 4.80   +00                                            1141000200081 
 1.700  -02 4.90   +00                                            1141000200082 
 1.700  -02 4.65   +00                                            1141000200083 
 1.750  -02 6.05   +00                                            1141000200084 
 1.750  -02 4.75   +00                                            1141000200085 
 1.800  -02 4.85   +00                                            1141000200086 
 1.800  -02 4.55   +00                                            1141000200087 
 1.850  -02 4.84   +00                                            1141000200088 
 1.850  -02 4.65   +00                                            1141000200089 
 1.850  -02 4.75   +00                                            1141000200090 
 1.900  -02 4.68   +00                                            1141000200091 
 1.900  -02 4.40   +00                                            1141000200092 
 1.900  -02 4.51   +00                                            1141000200093 
 1.950  -02 4.47   +00                                            1141000200094 
 1.950  -02 4.32   +00                                            1141000200095 
 2.000  -02 4.65   +00                                            1141000200096 
 2.000  -02 4.35   +00                                            1141000200097 
 2.050  -02 4.58   +00                                            1141000200098 
 2.050  -02 4.43   +00                                            1141000200099 
 2.100  -02 4.40   +00                                            1141000200100 
 2.100  -02 4.10   +00                                            1141000200101 
 2.150  -02 4.65   +00                                            1141000200102 
 2.150  -02 4.35   +00                                            1141000200103 
 2.200  -02 4.60   +00                                            1141000200104 
 2.200  -02 4.15   +00                                            1141000200105 
 2.250  -02 4.40   +00                                            1141000200106 
 2.250  -02 4.10   +00                                            1141000200107 
 2.300  -02 4.55   +00                                            1141000200108 
 2.350  -02 4.65   +00                                            1141000200109 
 2.350  -02 4.45   +00                                            1141000200110 
 2.400  -02 4.68   +00                                            1141000200111 
 2.400  -02 4.21   +00                                            1141000200112 
 2.450  -02 4.64   +00                                            1141000200113 
 2.450  -02 4.15   +00                                            1141000200114 
 2.500  -02 4.30   +00                                            1141000200115 
 2.500  -02 4.15   +00                                            1141000200116 
 2.550  -02 4.80   +00                                            1141000200117 
 2.550  -02 4.30   +00                                            1141000200118 
 2.600  -02 4.15   +00                                            1141000200119 
 2.600  -02 3.95   +00                                            1141000200120 
 2.650  -02 4.22   +00                                            1141000200121 
 2.650  -02 4.00   +00                                            1141000200122 
 2.700  -02 4.60   +00                                            1141000200123 
 2.700  -02 4.45   +00                                            1141000200124 
 2.750  -02 4.52   +00                                            1141000200125 
 2.750  -02 4.12   +00                                            1141000200126 
 2.800  -02 4.35   +00                                            1141000200127 
 2.850  -02 4.60   +00                                            1141000200128 
 2.850  -02 4.30   +00                                            1141000200129 
 2.900  -02 4.75   +00                                            1141000200130 
 2.900  -02 4.45   +00                                            1141000200131 
 2.950  -02 4.65   +00                                            1141000200132 
 2.950  -02 4.15   +00                                            1141000200133 
 3.000  -02 4.20   +00                                            1141000200134 
 3.000  -02 4.00   +00                                            1141000200135 
 3.050  -02 4.30   +00                                            1141000200136 
 3.050  -02 4.00   +00                                            1141000200137 
 3.100  -02 4.40   +00                                            1141000200138 
 3.100  -02 4.05   +00                                            1141000200139 
 3.150  -02 4.22   +00                                            1141000200140 
 3.200  -02 4.22   +00                                            1141000200141 
 3.250  -02 4.25   +00                                            1141000200142 
 3.300  -02 3.97   +00                                            1141000200143 
 3.350  -02 4.05   +00                                            1141000200144 
 3.400  -02 4.04   +00                                            1141000200145 
 3.450  -02 4.00   +00                                            1141000200146 
 3.500  -02 4.20   +00                                            1141000200147 
 3.550  -02 4.13   +00                                            1141000200148 
 3.600  -02 4.11   +00                                            1141000200149 
 3.650  -02 4.17   +00                                            1141000200150 
 3.700  -02 4.12   +00                                            1141000200151 
 3.750  -02 4.06   +00                                            1141000200152 
 3.800  -02 3.94   +00                                            1141000200153 
 3.850  -02 3.83   +00                                            1141000200154 
 3.900  -02 4.01   +00                                            1141000200155 
 3.950  -02 3.72   +00                                            1141000200156 
 4.000  -02 4.02   +00                                            1141000200157 
 4.050  -02 4.00   +00                                            1141000200158 
 4.100  -02 3.76   +00                                            1141000200159 
 4.150  -02 3.74   +00                                            1141000200160 
 4.200  -02 3.77   +00                                            1141000200161 
 4.250  -02 4.01   +00                                            1141000200162 
 4.300  -02 3.58   +00                                            1141000200163 
 4.350  -02 3.75   +00                                            1141000200164 
 4.400  -02 3.73   +00                                            1141000200165 
 4.450  -02 3.68   +00                                            1141000200166 
 4.500  -02 3.84   +00                                            1141000200167 
 4.550  -02 3.86   +00                                            1141000200168 
 4.600  -02 3.75   +00                                            1141000200169 
 4.650  -02 3.85   +00                                            1141000200170 
 4.700  -02 3.72   +00                                            1141000200171 
 4.750  -02 3.71   +00                                            1141000200172 
 4.800  -02 3.80   +00                                            1141000200173 
 4.850  -02 3.90   +00                                            1141000200174 
 4.850  -02 3.78   +00                                            1141000200175 
 4.900  -02 3.95   +00                                            1141000200176 
 4.900  -02 3.80   +00                                            1141000200177 
 4.950  -02 3.95   +00                                            1141000200178 
 4.950  -02 3.85   +00                                            1141000200179 
 5.000  -02 4.00   +00                                            1141000200180 
 5.025  -02 4.00   +00                                            1141000200181 
 5.050  -02 4.15   +00                                            1141000200182 
 5.050  -02 4.00   +00                                            1141000200183 
 5.100  -02 4.25   +00                                            1141000200184 
 5.150  -02 4.65   +00                                            1141000200185 
 5.200  -02 5.20   +00                                            1141000200186 
 5.200  -02 4.88   +00                                            1141000200187 
 5.200  -02 5.04   +00                                            1141000200188 
 5.230  -02 5.65   +00                                            1141000200189 
 5.250  -02 6.20   +00                                            1141000200190 
 5.250  -02 6.00   +00                                            1141000200191 
 5.300  -02 7.98   +00                                            1141000200192 
 5.300  -02 7.85   +00                                            1141000200193 
 5.330  -02 1.000  +01                                            1141000200194 
 5.350  -02 1.282  +01                                            1141000200195 
 5.350  -02 1.330  +01                                            1141000200196 
 5.370  -02 1.600  +01                                            1141000200197 
 5.370  -02 1.655  +01                                            1141000200198 
 5.380  -02 1.840  +01                                            1141000200199 
 5.390  -02 1.950  +01                                            1141000200200 
 5.390  -02 2.010  +01                                            1141000200201 
 5.400  -02 2.210  +01                                            1141000200202 
 5.405  -02 2.470  +01                                            1141000200203 
 5.410  -02 2.800  +01                                            1141000200204 
 5.415  -02 2.390  +01                                            1141000200205 
 5.430  -02 2.290  +01                                            1141000200206 
 5.450  -02 2.090  +01                                            1141000200207 
 5.450  -02 2.165  +01                                            1141000200208 
 5.470  -02 1.775  +01                                            1141000200209 
 5.470  -02 1.785  +01                                            1141000200210 
 5.475  -02 1.550  +01                                            1141000200211 
 5.485  -02 1.380  +01                                            1141000200212 
 5.485  -02 1.395  +01                                            1141000200213 
 5.500  -02 1.105  +01                                            1141000200214 
 5.505  -02 1.180  +01                                            1141000200215 
 5.505  -02 1.195  +01                                            1141000200216 
 5.510  -02 1.310  +01                                            1141000200217 
 5.515  -02 1.410  +01                                            1141000200218 
 5.525  -02 1.300  +01                                            1141000200219 
 5.535  -02 1.100  +01                                            1141000200220 
 5.550  -02 9.70   +00                                            1141000200221 
 5.575  -02 8.15   +00                                            1141000200222 
 5.600  -02 7.05   +00                                            1141000200223 
 5.625  -02 6.55   +00                                            1141000200224 
 5.650  -02 6.10   +00                                            1141000200225 
 5.675  -02 5.90   +00                                            1141000200226 
 5.700  -02 5.90   +00                                            1141000200227 
 5.725  -02 5.38   +00                                            1141000200228 
 5.750  -02 5.37   +00                                            1141000200229 
 5.775  -02 5.10   +00                                            1141000200230 
 5.800  -02 5.06   +00                                            1141000200231 
 5.825  -02 5.04   +00                                            1141000200232 
 5.850  -02 4.59   +00                                            1141000200233 
 5.875  -02 4.70   +00                                            1141000200234 
 5.900  -02 4.49   +00                                            1141000200235 
 5.925  -02 4.60   +00                                            1141000200236 
 5.950  -02 4.45   +00                                            1141000200237 
 5.975  -02 4.50   +00                                            1141000200238 
 6.000  -02 4.35   +00                                            1141000200239 
 6.025  -02 4.27   +00                                            1141000200240 
 6.050  -02 4.27   +00                                            1141000200241 
 6.050  -02 4.30   +00                                            1141000200242 
 6.100  -02 4.15   +00                                            1141000200243 
 6.100  -02 4.17   +00                                            1141000200244 
 6.150  -02 4.27   +00                                            1141000200245 
 6.150  -02 4.40   +00                                            1141000200246 
 6.175  -02 3.95   +00                                            1141000200247 
 6.200  -02 3.84   +00                                            1141000200248 
 6.225  -02 3.71   +00                                            1141000200249 
 6.250  -02 3.75   +00                                            1141000200250 
 6.250  -02 3.68   +00                                            1141000200251 
 6.260  -02 3.85   +00                                            1141000200252 
 6.275  -02 4.21   +00                                            1141000200253 
 6.300  -02 4.32   +00                                            1141000200254 
 6.325  -02 4.90   +00                                            1141000200255 
 6.350  -02 4.93   +00                                            1141000200256 
 6.375  -02 4.78   +00                                            1141000200257 
 6.400  -02 4.47   +00                                            1141000200258 
 6.400  -02 4.56   +00                                            1141000200259 
 6.425  -02 4.43   +00                                            1141000200260 
 6.450  -02 4.10   +00                                            1141000200261 
 6.450  -02 4.32   +00                                            1141000200262 
 6.475  -02 4.10   +00                                            1141000200263 
 6.500  -02 4.08   +00                                            1141000200264 
 6.500  -02 3.94   +00                                            1141000200265 
 6.550  -02 3.62   +00                                            1141000200266 
 6.550  -02 3.71   +00                                            1141000200267 
 6.600  -02 3.88   +00                                            1141000200268 
 6.600  -02 3.97   +00                                            1141000200269 
 6.650  -02 4.40   +00                                            1141000200270 
 6.700  -02 4.91   +00                                            1141000200271 
 6.700  -02 4.99   +00                                            1141000200272 
 6.750  -02 4.03   +00                                            1141000200273 
 6.750  -02 4.18   +00                                            1141000200274 
 6.800  -02 3.86   +00                                            1141000200275 
 6.800  -02 3.95   +00                                            1141000200276 
 6.850  -02 3.88   +00                                            1141000200277 
 6.900  -02 3.87   +00                                            1141000200278 
 6.900  -02 3.78   +00                                            1141000200279 
 6.950  -02 3.81   +00                                            1141000200280 
 6.950  -02 3.71   +00                                            1141000200281 
 7.000  -02 3.55   +00                                            1141000200282 
 7.000  -02 3.60   +00                                            1141000200283 
 7.050  -02 3.52   +00                                            1141000200284 
 7.050  -02 3.63   +00                                            1141000200285 
 7.100  -02 3.50   +00                                            1141000200286 
 7.100  -02 3.60   +00                                            1141000200287 
 7.150  -02 3.75   +00                                            1141000200288 
 7.200  -02 4.16   +00                                            1141000200289 
 7.200  -02 4.23   +00                                            1141000200290 
 7.250  -02 4.37   +00                                            1141000200291 
 7.250  -02 4.44   +00                                            1141000200292 
 7.300  -02 4.06   +00                                            1141000200293 
 7.300  -02 4.13   +00                                            1141000200294 
 7.350  -02 3.63   +00                                            1141000200295 
 7.350  -02 3.76   +00                                            1141000200296 
 7.400  -02 3.56   +00                                            1141000200297 
 7.400  -02 3.49   +00                                            1141000200298 
 7.450  -02 3.46   +00                                            1141000200299 
 7.500  -02 3.87   +00                                            1141000200300 
 7.550  -02 4.00   +00                                            1141000200301 
 7.550  -02 4.07   +00                                            1141000200302 
 7.600  -02 3.66   +00                                            1141000200303 
 7.600  -02 3.79   +00                                            1141000200304 
 7.650  -02 3.50   +00                                            1141000200305 
 7.700  -02 3.50   +00                                            1141000200306 
 7.700  -02 3.61   +00                                            1141000200307 
 7.750  -02 3.51   +00                                            1141000200308 
 7.750  -02 3.84   +00                                            1141000200309 
 7.800  -02 3.58   +00                                            1141000200310 
 7.800  -02 3.67   +00                                            1141000200311 
 7.850  -02 3.39   +00                                            1141000200312 
 7.850  -02 3.50   +00                                            1141000200313 
 7.900  -02 3.47   +00                                            1141000200314 
 7.950  -02 4.06   +00                                            1141000200315 
 7.950  -02 4.13   +00                                            1141000200316 
 8.000  -02 3.10   +00                                            1141000200317 
 8.050  -02 3.65   +00                                            1141000200318 
 8.075  -02 3.40   +00                                            1141000200319 
 8.100  -02 3.61   +00                                            1141000200320 
 8.150  -02 3.98   +00                                            1141000200321 
 8.200  -02 3.48   +00                                            1141000200322 
 8.250  -02 3.27   +00                                            1141000200323 
 8.250  -02 3.36   +00                                            1141000200324 
 8.300  -02 3.21   +00                                            1141000200325 
 8.325  -02 3.31   +00                                            1141000200326 
 8.350  -02 3.50   +00                                            1141000200327 
 8.350  -02 3.65   +00                                            1141000200328 
 8.350  -02 3.50   +00                                            1141000200329 
 8.350  -02 3.66   +00                                            1141000200330 
 8.375  -02 3.86   +00                                            1141000200331 
 8.400  -02 4.00   +00                                            1141000200332 
 8.450  -02 3.50   +00                                            1141000200333 
 8.450  -02 3.58   +00                                            1141000200334 
 8.475  -02 3.39   +00                                            1141000200335 
 8.475  -02 3.38   +00                                            1141000200336 
 8.500  -02 3.66   +00                                            1141000200337 
 8.500  -02 3.67   +00                                            1141000200338 
 8.525  -02 3.80   +00                                            1141000200339 
 8.575  -02 3.71   +00                                            1141000200340 
 8.600  -02 3.50   +00                                            1141000200341 
 8.650  -02 3.77   +00                                            1141000200342 
 8.675  -02 3.56   +00                                            1141000200343 
 8.700  -02 3.52   +00                                            1141000200344 
 8.750  -02 3.47   +00                                            1141000200345 
 8.800  -02 3.48   +00                                            1141000200346 
 8.850  -02 3.75   +00                                            1141000200347 
 8.900  -02 3.50   +00                                            1141000200348 
 8.950  -02 3.47   +00                                            1141000200349 
 9.000  -02 3.47   +00                                            1141000200350 
 9.075  -02 3.36   +00                                            1141000200351 
 9.100  -02 3.62   +00                                            1141000200352 
 9.150  -02 3.65   +00                                            1141000200353 
 9.175  -02 3.50   +00                                            1141000200354 
 9.200  -02 3.33   +00                                            1141000200355 
 9.250  -02 3.08   +00                                            1141000200356 
 9.250  -02 3.05   +00                                            1141000200357 
 9.275  -02 3.21   +00                                            1141000200358 
 9.300  -02 3.42   +00                                            1141000200359 
 9.325  -02 3.55   +00                                            1141000200360 
 9.350  -02 3.70   +00                                            1141000200361 
 9.400  -02 3.53   +00                                            1141000200362 
 9.400  -02 3.62   +00                                            1141000200363 
 9.450  -02 3.40   +00                                            1141000200364 
 9.500  -02 3.33   +00                                            1141000200365 
 9.550  -02 3.44   +00                                            1141000200366 
 9.600  -02 3.56   +00                                            1141000200367 
 9.600  -02 3.65   +00                                            1141000200368 
 9.650  -02 3.73   +00                                            1141000200369 
 9.700  -02 3.59   +00                                            1141000200370 
 9.700  -02 3.68   +00                                            1141000200371 
 9.750  -02 3.46   +00                                            1141000200372 
 9.800  -02 3.37   +00                                            1141000200373 
 9.850  -02 3.68   +00                                            1141000200374 
 9.900  -02 3.33   +00                                            1141000200375 
 9.950  -02 3.28   +00                                            1141000200376 
 1.000  -01 3.25   +00                                            1141000200377 
 1.005  -01 3.50   +00                                            1141000200378 
 1.010  -01 3.61   +00                                            1141000200379 
 1.015  -01 3.47   +00                                            1141000200380 
 1.020  -01 3.40   +00                                            1141000200381 
 1.030  -01 3.50   +00                                            1141000200382 
 1.035  -01 3.37   +00                                            1141000200383 
 1.040  -01 3.37   +00                                            1141000200384 
 1.050  -01 3.47   +00                                            1141000200385 
 1.055  -01 3.69   +00                                            1141000200386 
 1.060  -01 3.37   +00                                            1141000200387 
 1.065  -01 3.10   +00                                            1141000200388 
 1.070  -01 3.03   +00                                            1141000200389 
 1.070  -01 3.15   +00                                            1141000200390 
 1.075  -01 3.85   +00                                            1141000200391 
 1.080  -01 3.79   +00                                            1141000200392 
 1.085  -01 3.38   +00                                            1141000200393 
 1.090  -01 3.17   +00                                            1141000200394 
 1.095  -01 3.12   +00                                            1141000200395 
 1.100  -01 3.15   +00                                            1141000200396 
 1.105  -01 3.22   +00                                            1141000200397 
 1.110  -01 3.55   +00                                            1141000200398 
 1.110  -01 3.40   +00                                            1141000200399 
 1.115  -01 3.95   +00                                            1141000200400 
 1.120  -01 3.74   +00                                            1141000200401 
 1.120  -01 3.86   +00                                            1141000200402 
 1.125  -01 3.50   +00                                            1141000200403 
 1.130  -01 3.61   +00                                            1141000200404 
 1.135  -01 3.51   +00                                            1141000200405 
 1.140  -01 3.32   +00                                            1141000200406 
 1.140  -01 3.34   +00                                            1141000200407 
 1.150  -01 3.15   +00                                            1141000200408 
 1.160  -01 3.32   +00                                            1141000200409 
 1.170  -01 3.33   +00                                            1141000200410 
 1.175  -01 3.05   +00                                            1141000200411 
 1.180  -01 3.32   +00                                            1141000200412 
 1.190  -01 3.38   +00                                            1141000200413 
 1.195  -01 2.93   +00                                            1141000200414 
 1.198  -01 3.03   +00                                            1141000200415 
 1.200  -01 3.68   +00                                            1141000200416 
 1.203  -01 4.05   +00                                            1141000200417 
 1.205  -01 3.98   +00                                            1141000200418 
 1.210  -01 3.52   +00                                            1141000200419 
 1.210  -01 3.60   +00                                            1141000200420 
 1.215  -01 3.43   +00                                            1141000200421 
 1.220  -01 3.35   +00                                            1141000200422 
 1.225  -01 3.32   +00                                            1141000200423 
 1.230  -01 3.31   +00                                            1141000200424 
 1.230  -01 3.37   +00                                            1141000200425 
 1.235  -01 3.69   +00                                            1141000200426 
 1.240  -01 3.60   +00                                            1141000200427 
 1.245  -01 3.45   +00                                            1141000200428 
 1.250  -01 3.19   +00                                            1141000200429 
 1.250  -01 3.39   +00                                            1141000200430 
 1.255  -01 3.13   +00                                            1141000200431 
 1.260  -01 3.30   +00                                            1141000200432 
 1.270  -01 4.03   +00                                            1141000200433 
 1.275  -01 4.10   +00                                            1141000200434 
 1.280  -01 3.49   +00                                            1141000200435 
 1.285  -01 3.28   +00                                            1141000200436 
 1.290  -01 3.45   +00                                            1141000200437 
 1.300  -01 3.15   +00                                            1141000200438 
 1.310  -01 3.17   +00                                            1141000200439 
 1.320  -01 3.55   +00                                            1141000200440 
 1.330  -01 3.27   +00                                            1141000200441 
 1.340  -01 3.57   +00                                            1141000200442 
 1.350  -01 3.95   +00                                            1141000200443 
 1.360  -01 3.11   +00                                            1141000200444 
 1.370  -01 3.75   +00                                            1141000200445 
 1.380  -01 3.42   +00                                            1141000200446 
 1.385  -01 3.36   +00                                            1141000200447 
 1.390  -01 3.52   +00                                            1141000200448 
 1.400  -01 3.09   +00                                            1141000200449 
 1.410  -01 3.52   +00                                            1141000200450 
 1.420  -01 3.62   +00                                            1141000200451 
 1.430  -01 3.25   +00                                            1141000200452 
 1.440  -01 3.67   +00                                            1141000200453 
 1.450  -01 3.34   +00                                            1141000200454 
 1.460  -01 3.85   +00                                            1141000200455 
 1.470  -01 3.39   +00                                            1141000200456 
 1.475  -01 3.56   +00                                            1141000200457 
 1.480  -01 3.25   +00                                            1141000200458 
 1.490  -01 3.39   +00                                            1141000200459 
 1.500  -01 3.30   +00                                            1141000200460 
 1.510  -01 3.55   +00                                            1141000200461 
 1.520  -01 3.21   +00                                            1141000200462 
 1.528  -01 3.50   +00                                            1141000200463 
 1.540  -01 3.09   +00                                            1141000200464 
 1.550  -01 3.57   +00                                            1141000200465 
 1.560  -01 3.16   +00                                            1141000200466 
 1.570  -01 3.50   +00                                            1141000200467 
 1.580  -01 3.10   +00                                            1141000200468 
 1.590  -01 3.25   +00                                            1141000200469 
 1.600  -01 3.45   +00                                            1141000200470 
 1.610  -01 3.60   +00                                            1141000200471 
 1.620  -01 3.25   +00                                            1141000200472 
 1.630  -01 3.19   +00                                            1141000200473 
 1.640  -01 3.15   +00                                            1141000200474 
 1.650  -01 3.15   +00                                            1141000200475 
 1.660  -01 3.26   +00                                            1141000200476 
 1.670  -01 3.50   +00                                            1141000200477 
 1.680  -01 3.12   +00                                            1141000200478 
 1.690  -01 3.04   +00                                            1141000200479 
 1.700  -01 3.15   +00                                            1141000200480 
 1.710  -01 3.36   +00                                            1141000200481 
 1.720  -01 3.50   +00                                            1141000200482 
 1.730  -01 3.19   +00                                            1141000200483 
 1.740  -01 3.09   +00                                            1141000200484 
 1.750  -01 3.54   +00                                            1141000200485 
 1.760  -01 3.68   +00                                            1141000200486 
 1.770  -01 3.06   +00                                            1141000200487 
 1.780  -01 3.33   +00                                            1141000200488 
 1.790  -01 3.43   +00                                            1141000200489 
 1.800  -01 3.04   +00                                            1141000200490 
 1.810  -01 2.89   +00                                            1141000200491 
 1.820  -01 3.18   +00                                            1141000200492 
 1.830  -01 3.35   +00                                            1141000200493 
 1.840  -01 3.25   +00                                            1141000200494 
 1.850  -01 2.85   +00                                            1141000200495 
 1.860  -01 3.00   +00                                            1141000200496 
 1.870  -01 3.32   +00                                            1141000200497 
 1.880  -01 3.75   +00                                            1141000200498 
 1.890  -01 3.34   +00                                            1141000200499 
 1.900  -01 3.41   +00                                            1141000200500 
 1.900  -01 3.34   +00                                            1141000200501 
 1.910  -01 3.45   +00                                            1141000200502 
 1.920  -01 3.69   +00                                            1141000200503 
 1.930  -01 4.13   +00                                            1141000200504 
 1.940  -01 3.28   +00                                            1141000200505 
 1.950  -01 3.27   +00                                            1141000200506 
 1.960  -01 3.70   +00                                            1141000200507 
 1.970  -01 4.18   +00                                            1141000200508 
 1.980  -01 3.54   +00                                            1141000200509 
 1.980  -01 3.45   +00                                            1141000200510 
 1.990  -01 3.76   +00                                            1141000200511 
 1.990  -01 4.02   +00                                            1141000200512 
 2.000  -01 4.02   +00                                            1141000200513 
 2.000  -01 3.82   +00                                            1141000200514 
 2.010  -01 4.18   +00                                            1141000200515 
 2.010  -01 4.47   +00                                            1141000200516 
 2.020  -01 5.36   +00                                            1141000200517 
 2.020  -01 5.66   +00                                            1141000200518 
 2.025  -01 6.50   +00                                            1141000200519 
 2.028  -01 6.93   +00                                            1141000200520 
 2.030  -01 7.74   +00                                            1141000200521 
 2.030  -01 8.40   +00                                            1141000200522 
 2.033  -01 8.36   +00                                            1141000200523 
 2.035  -01 7.21   +00                                            1141000200524 
 2.040  -01 6.65   +00                                            1141000200525 
 2.043  -01 6.21   +00                                            1141000200526 
 2.045  -01 6.86   +00                                            1141000200527 
 2.050  -01 7.09   +00                                            1141000200528 
 2.055  -01 6.48   +00                                            1141000200529 
 2.060  -01 6.36   +00                                            1141000200530 
 2.060  -01 6.21   +00                                            1141000200531 
 2.065  -01 5.89   +00                                            1141000200532 
 2.070  -01 5.33   +00                                            1141000200533 
 2.070  -01 5.39   +00                                            1141000200534 
 2.080  -01 4.64   +00                                            1141000200535 
 2.090  -01 4.28   +00                                            1141000200536 
 2.100  -01 4.09   +00                                            1141000200537 
 2.110  -01 4.09   +00                                            1141000200538 
 2.120  -01 4.59   +00                                            1141000200539 
 2.130  -01 5.11   +00                                            1141000200540 
 2.140  -01 4.90   +00                                            1141000200541 
 2.150  -01 4.43   +00                                            1141000200542 
 2.160  -01 4.33   +00                                            1141000200543 
 2.170  -01 4.55   +00                                            1141000200544 
 2.180  -01 4.85   +00                                            1141000200545 
 2.190  -01 4.68   +00                                            1141000200546 
 2.200  -01 4.09   +00                                            1141000200547 
 2.210  -01 4.00   +00                                            1141000200548 
 2.220  -01 4.03   +00                                            1141000200549 
 2.230  -01 4.18   +00                                            1141000200550 
 2.240  -01 4.39   +00                                            1141000200551 
 2.245  -01 4.15   +00                                            1141000200552 
 2.250  -01 3.97   +00                                            1141000200553 
 2.260  -01 3.67   +00                                            1141000200554 
 2.270  -01 3.90   +00                                            1141000200555 
 2.280  -01 4.09   +00                                            1141000200556 
 2.290  -01 3.57   +00                                            1141000200557 
 2.300  -01 3.18   +00                                            1141000200558 
 2.310  -01 3.00   +00                                            1141000200559 
 2.320  -01 3.72   +00                                            1141000200560 
 2.320  -01 3.97   +00                                            1141000200561 
 2.325  -01 4.50   +00                                            1141000200562 
 2.330  -01 4.25   +00                                            1141000200563 
 2.335  -01 3.75   +00                                            1141000200564 
 2.335  -01 3.69   +00                                            1141000200565 
 2.340  -01 3.58   +00                                            1141000200566 
 2.340  -01 3.66   +00                                            1141000200567 
 2.345  -01 3.63   +00                                            1141000200568 
 2.350  -01 3.78   +00                                            1141000200569 
 2.350  -01 3.62   +00                                            1141000200570 
 2.355  -01 3.79   +00                                            1141000200571 
 2.360  -01 3.88   +00                                            1141000200572 
 2.360  -01 3.71   +00                                            1141000200573 
 2.365  -01 4.03   +00                                            1141000200574 
 2.370  -01 4.11   +00                                            1141000200575 
 2.370  -01 4.17   +00                                            1141000200576 
 2.370  -01 3.95   +00                                            1141000200577 
 2.375  -01 4.37   +00                                            1141000200578 
 2.380  -01 4.75   +00                                            1141000200579 
 2.380  -01 5.00   +00                                            1141000200580 
 2.385  -01 5.00   +00                                            1141000200581 
 2.390  -01 5.89   +00                                            1141000200582 
 2.395  -01 6.02   +00                                            1141000200583 
 2.400  -01 6.65   +00                                            1141000200584 
 2.405  -01 6.97   +00                                            1141000200585 
 2.410  -01 7.25   +00                                            1141000200586 
 2.415  -01 8.00   +00                                            1141000200587 
 2.420  -01 8.60   +00                                            1141000200588 
 2.425  -01 8.40   +00                                            1141000200589 
 2.430  -01 8.05   +00                                            1141000200590 
 2.435  -01 7.65   +00                                            1141000200591 
 2.440  -01 7.28   +00                                            1141000200592 
 2.445  -01 6.50   +00                                            1141000200593 
 2.450  -01 5.96   +00                                            1141000200594 
 2.455  -01 5.78   +00                                            1141000200595 
 2.460  -01 5.96   +00                                            1141000200596 
 2.465  -01 6.40   +00                                            1141000200597 
 2.470  -01 6.57   +00                                            1141000200598 
 2.475  -01 6.49   +00                                            1141000200599 
 2.480  -01 6.01   +00                                            1141000200600 
 2.485  -01 5.57   +00                                            1141000200601 
 2.490  -01 5.28   +00                                            1141000200602 
 2.500  -01 4.55   +00                                            1141000200603 
 2.510  -01 4.00   +00                                            1141000200604 
 2.520  -01 3.55   +00                                            1141000200605 
 2.530  -01 4.00   +00                                            1141000200606 
 2.540  -01 4.30   +00                                            1141000200607 
 2.550  -01 4.61   +00                                            1141000200608 
 2.560  -01 4.25   +00                                            1141000200609 
 2.570  -01 3.62   +00                                            1141000200610 
 2.580  -01 3.30   +00                                            1141000200611 
 2.590  -01 3.62   +00                                            1141000200612 
 2.600  -01 4.10   +00                                            1141000200613 
 2.610  -01 4.00   +00                                            1141000200614 
 2.620  -01 3.45   +00                                            1141000200615 
 2.630  -01 2.90   +00                                            1141000200616 
 2.640  -01 3.34   +00                                            1141000200617 
 2.650  -01 3.18   +00                                            1141000200618 
 2.660  -01 2.71   +00                                            1141000200619 
 2.670  -01 3.15   +00                                            1141000200620 
 2.680  -01 3.71   +00                                            1141000200621 
 2.690  -01 4.10   +00                                            1141000200622 
 2.700  -01 3.33   +00                                            1141000200623 
 2.710  -01 2.95   +00                                            1141000200624 
 2.720  -01 3.60   +00                                            1141000200625 
 2.730  -01 3.51   +00                                            1141000200626 
 2.740  -01 3.17   +00                                            1141000200627 
 2.750  -01 2.93   +00                                            1141000200628 
 2.760  -01 2.57   +00                                            1141000200629 
 2.770  -01 2.88   +00                                            1141000200630 
 2.780  -01 3.21   +00                                            1141000200631 
 2.790  -01 3.25   +00                                            1141000200632 
 2.800  -01 2.82   +00                                            1141000200633 
 2.810  -01 2.61   +00                                            1141000200634 
 2.820  -01 2.65   +00                                            1141000200635 
 2.830  -01 3.00   +00                                            1141000200636 
 2.840  -01 2.98   +00                                            1141000200637 
 2.850  -01 2.78   +00                                            1141000200638 
 2.860  -01 2.97   +00                                            1141000200639 
 2.870  -01 3.16   +00                                            1141000200640 
 2.880  -01 3.06   +00                                            1141000200641 
 2.890  -01 2.60   +00                                            1141000200642 
 2.900  -01 2.95   +00                                            1141000200643 
 2.910  -01 3.05   +00                                            1141000200644 
 2.920  -01 2.75   +00                                            1141000200645 
 2.930  -01 2.38   +00                                            1141000200646 
 2.940  -01 2.84   +00                                            1141000200647 
 2.950  -01 3.06   +00                                            1141000200648 
 2.960  -01 2.69   +00                                            1141000200649 
 2.970  -01 2.44   +00                                            1141000200650 
 2.980  -01 2.29   +00                                            1141000200651 
 2.990  -01 1.90   +00                                            1141000200652 
 2.995  -01 1.75   +00                                            1141000200653 
 3.000  -01 1.68   +00                                            1141000200654 
 3.005  -01 1.62   +00                                            1141000200655 
 3.013  -01 2.19   +00                                            1141000200656 
 3.015  -01 2.73   +00                                            1141000200657 
 3.018  -01 3.10   +00                                            1141000200658 
 3.020  -01 3.68   +00                                            1141000200659 
 3.025  -01 4.53   +00                                            1141000200660 
 3.030  -01 5.13   +00                                            1141000200661 
 3.035  -01 5.53   +00                                            1141000200662 
 3.040  -01 5.08   +00                                            1141000200663 
 3.045  -01 4.45   +00                                            1141000200664 
 3.050  -01 3.90   +00                                            1141000200665 
 3.055  -01 4.07   +00                                            1141000200666 
 3.060  -01 4.22   +00                                            1141000200667 
 3.065  -01 4.00   +00                                            1141000200668 
 3.070  -01 3.76   +00                                            1141000200669 
 3.080  -01 3.28   +00                                            1141000200670 
 3.090  -01 3.25   +00                                            1141000200671 
 3.100  -01 3.26   +00                                            1141000200672 
 3.110  -01 4.02   +00                                            1141000200673 
 3.120  -01 3.69   +00                                            1141000200674 
 3.130  -01 3.53   +00                                            1141000200675 
 3.140  -01 3.21   +00                                            1141000200676 
 3.150  -01 3.05   +00                                            1141000200677 
 3.160  -01 4.00   +00                                            1141000200678 
 3.170  -01 3.79   +00                                            1141000200679 
 3.180  -01 3.33   +00                                            1141000200680 
 3.190  -01 3.21   +00                                            1141000200681 
 3.200  -01 3.25   +00                                            1141000200682 
 3.210  -01 3.25   +00                                            1141000200683 
 3.220  -01 2.90   +00                                            1141000200684 
 3.230  -01 3.19   +00                                            1141000200685 
 3.240  -01 3.62   +00                                            1141000200686 
 3.250  -01 3.00   +00                                            1141000200687 
 3.260  -01 3.08   +00                                            1141000200688 
 3.270  -01 3.14   +00                                            1141000200689 
 3.280  -01 2.88   +00                                            1141000200690 
 3.290  -01 3.13   +00                                            1141000200691 
 3.300  -01 3.37   +00                                            1141000200692 
 3.310  -01 3.61   +00                                            1141000200693 
 3.320  -01 3.25   +00                                            1141000200694 
 3.330  -01 3.10   +00                                            1141000200695 
 3.340  -01 3.18   +00                                            1141000200696 
 3.350  -01 2.95   +00                                            1141000200697 
 3.360  -01 2.75   +00                                            1141000200698 
 3.370  -01 2.66   +00                                            1141000200699 
 3.380  -01 3.28   +00                                            1141000200700 
 3.390  -01 3.28   +00                                            1141000200701 
 3.400  -01 3.00   +00                                            1141000200702 
 3.410  -01 2.82   +00                                            1141000200703 
 3.420  -01 2.78   +00                                            1141000200704 
 3.430  -01 3.33   +00                                            1141000200705 
 3.440  -01 3.45   +00                                            1141000200706 
 3.450  -01 2.97   +00                                            1141000200707 
 3.460  -01 3.18   +00                                            1141000200708 
 3.470  -01 2.87   +00                                            1141000200709 
 3.480  -01 2.85   +00                                            1141000200710 
 3.490  -01 2.97   +00                                            1141000200711 
ENDDATA            704          0                                 1141000200712 
ENDSUBENT          711          0                                 1141000299999 
SUBENT        11410003   19860210                             00001141000300001 
BIB                  3          3                                 1141000300002 
REACTION   (11-NA-23(N,TOT),,SIG)                                 1141000300003 
COMMENT    SELF DETECTION.                                        1141000300004 
HISTORY    (860210A) ENERGY CORRECTION.                           1141000300005 
ENDBIB               3          0                                 1141000300006 
NOCOMMON             0          0                                 1141000300007 
DATA                 2        519                                 1141000300008 
EN         DATA                                                   1141000300009 
MEV        B                                                      1141000300010 
 2.65   -03 4.460  +01                                            1141000300011 
 2.70   -03 8.430  +01                                            1141000300012 
 2.75   -03 1.326  +02                                            1141000300013 
 2.80   -03 1.716  +02                                            1141000300014 
 2.85   -03 2.380  +02                                            1141000300015 
 2.90   -03 2.760  +02                                            1141000300016 
 2.95   -03 3.760  +02                                            1141000300017 
 3.00   -03 2.860  +02                                            1141000300018 
 3.10   -03 2.430  +02                                            1141000300019 
 3.15   -03 1.708  +02                                            1141000300020 
 3.20   -03 1.630  +02                                            1141000300021 
 3.25   -03 1.300  +02                                            1141000300022 
 3.30   -03 1.240  +02                                            1141000300023 
 3.35   -03 9.20   +01                                            1141000300024 
 3.50   -03 7.580  +01                                            1141000300025 
 3.70   -03 4.340  +01                                            1141000300026 
 5.350  -02 1.620  +01                                            1141000300027 
 5.370  -02 2.000  +01                                            1141000300028 
 5.380  -02 2.360  +01                                            1141000300029 
 5.390  -02 3.485  +01                                            1141000300030 
 5.405  -02 3.485  +01                                            1141000300031 
 5.410  -02 4.150  +01                                            1141000300032 
 5.430  -02 3.430  +01                                            1141000300033 
 5.450  -02 2.900  +01                                            1141000300034 
 5.470  -02 2.075  +01                                            1141000300035 
 5.475  -02 1.860  +01                                            1141000300036 
 5.485  -02 1.445  +01                                            1141000300037 
 5.500  -02 1.355  +01                                            1141000300038 
 5.505  -02 1.885  +01                                            1141000300039 
 5.510  -02 2.040  +01                                            1141000300040 
 5.515  -02 1.935  +01                                            1141000300041 
 5.525  -02 1.698  +01                                            1141000300042 
 5.535  -02 1.315  +01                                            1141000300043 
 5.550  -02 1.085  +01                                            1141000300044 
 5.575  -02 1.005  +01                                            1141000300045 
 6.100  -02 4.12   +00                                            1141000300046 
 6.150  -02 4.62   +00                                            1141000300047 
 6.200  -02 3.88   +00                                            1141000300048 
 6.225  -02 3.83   +00                                            1141000300049 
 6.260  -02 3.95   +00                                            1141000300050 
 6.300  -02 6.75   +00                                            1141000300051 
 6.350  -02 6.33   +00                                            1141000300052 
 6.400  -02 5.14   +00                                            1141000300053 
 6.450  -02 4.21   +00                                            1141000300054 
 6.550  -02 3.55   +00                                            1141000300055 
 6.600  -02 3.75   +00                                            1141000300056 
 6.650  -02 5.26   +00                                            1141000300057 
 6.700  -02 6.25   +00                                            1141000300058 
 6.750  -02 5.00   +00                                            1141000300059 
 6.800  -02 3.82   +00                                            1141000300060 
 7.000  -02 3.56   +00                                            1141000300061 
 7.050  -02 3.68   +00                                            1141000300062 
 7.100  -02 3.68   +00                                            1141000300063 
 7.200  -02 4.50   +00                                            1141000300064 
 7.250  -02 6.50   +00                                            1141000300065 
 7.300  -02 5.31   +00                                            1141000300066 
 7.350  -02 3.87   +00                                            1141000300067 
 7.450  -02 3.34   +00                                            1141000300068 
 7.500  -02 4.06   +00                                            1141000300069 
 7.550  -02 4.33   +00                                            1141000300070 
 7.600  -02 3.60   +00                                            1141000300071 
 7.650  -02 3.18   +00                                            1141000300072 
 7.700  -02 3.66   +00                                            1141000300073 
 7.750  -02 4.07   +00                                            1141000300074 
 7.800  -02 3.53   +00                                            1141000300075 
 7.850  -02 3.30   +00                                            1141000300076 
 7.900  -02 3.39   +00                                            1141000300077 
 7.950  -02 3.88   +00                                            1141000300078 
 8.000  -02 3.14   +00                                            1141000300079 
 8.050  -02 3.46   +00                                            1141000300080 
 8.050  -02 3.16   +00                                            1141000300081 
 8.100  -02 3.33   +00                                            1141000300082 
 8.100  -02 3.18   +00                                            1141000300083 
 8.150  -02 4.25   +00                                            1141000300084 
 8.150  -02 4.43   +00                                            1141000300085 
 8.200  -02 4.13   +00                                            1141000300086 
 8.200  -02 4.28   +00                                            1141000300087 
 8.250  -02 3.33   +00                                            1141000300088 
 8.325  -02 3.45   +00                                            1141000300089 
 8.325  -02 3.46   +00                                            1141000300090 
 8.350  -02 3.88   +00                                            1141000300091 
 8.400  -02 4.27   +00                                            1141000300092 
 8.450  -02 3.65   +00                                            1141000300093 
 8.475  -02 3.33   +00                                            1141000300094 
 8.525  -02 4.46   +00                                            1141000300095 
 8.575  -02 4.06   +00                                            1141000300096 
 8.600  -02 3.21   +00                                            1141000300097 
 8.650  -02 3.88   +00                                            1141000300098 
 8.650  -02 3.94   +00                                            1141000300099 
 8.700  -02 3.60   +00                                            1141000300100 
 8.700  -02 3.64   +00                                            1141000300101 
 8.750  -02 3.18   +00                                            1141000300102 
 8.800  -02 3.62   +00                                            1141000300103 
 8.850  -02 4.05   +00                                            1141000300104 
 8.900  -02 3.33   +00                                            1141000300105 
 8.950  -02 3.36   +00                                            1141000300106 
 9.000  -02 3.34   +00                                            1141000300107 
 9.050  -02 3.39   +00                                            1141000300108 
 9.100  -02 4.60   +00                                            1141000300109 
 9.150  -02 4.44   +00                                            1141000300110 
 9.200  -02 3.39   +00                                            1141000300111 
 9.300  -02 4.24   +00                                            1141000300112 
 9.325  -02 4.85   +00                                            1141000300113 
 9.350  -02 5.88   +00                                            1141000300114 
 9.400  -02 3.61   +00                                            1141000300115 
 9.450  -02 3.34   +00                                            1141000300116 
 9.500  -02 3.21   +00                                            1141000300117 
 9.550  -02 3.25   +00                                            1141000300118 
 9.600  -02 3.71   +00                                            1141000300119 
 9.650  -02 4.16   +00                                            1141000300120 
 9.700  -02 3.62   +00                                            1141000300121 
 9.750  -02 3.31   +00                                            1141000300122 
 9.800  -02 3.68   +00                                            1141000300123 
 9.850  -02 5.33   +00                                            1141000300124 
 9.900  -02 4.00   +00                                            1141000300125 
 9.950  -02 3.16   +00                                            1141000300126 
 1.000  -01 3.10   +00                                            1141000300127 
 1.005  -01 3.61   +00                                            1141000300128 
 1.010  -01 4.65   +00                                            1141000300129 
 1.015  -01 3.56   +00                                            1141000300130 
 1.020  -01 3.15   +00                                            1141000300131 
 1.025  -01 3.10   +00                                            1141000300132 
 1.030  -01 3.77   +00                                            1141000300133 
 1.040  -01 3.18   +00                                            1141000300134 
 1.045  -01 3.88   +00                                            1141000300135 
 1.050  -01 3.52   +00                                            1141000300136 
 1.055  -01 4.33   +00                                            1141000300137 
 1.060  -01 3.59   +00                                            1141000300138 
 1.070  -01 2.76   +00                                            1141000300139 
 1.075  -01 4.35   +00                                            1141000300140 
 1.078  -01 5.34   +00                                            1141000300141 
 1.080  -01 3.88   +00                                            1141000300142 
 1.085  -01 3.31   +00                                            1141000300143 
 1.090  -01 3.04   +00                                            1141000300144 
 1.095  -01 3.01   +00                                            1141000300145 
 1.100  -01 3.02   +00                                            1141000300146 
 1.100  -01 3.49   +00                                            1141000300147 
 1.105  -01 3.13   +00                                            1141000300148 
 1.115  -01 5.06   +00                                            1141000300149 
 1.120  -01 3.89   +00                                            1141000300150 
 1.120  -01 4.00   +00                                            1141000300151 
 1.125  -01 3.33   +00                                            1141000300152 
 1.125  -01 3.25   +00                                            1141000300153 
 1.130  -01 3.74   +00                                            1141000300154 
 1.135  -01 3.33   +00                                            1141000300155 
 1.135  -01 3.36   +00                                            1141000300156 
 1.140  -01 3.28   +00                                            1141000300157 
 1.145  -01 3.17   +00                                            1141000300158 
 1.155  -01 2.84   +00                                            1141000300159 
 1.160  -01 3.16   +00                                            1141000300160 
 1.165  -01 4.37   +00                                            1141000300161 
 1.170  -01 3.89   +00                                            1141000300162 
 1.175  -01 2.81   +00                                            1141000300163 
 1.180  -01 3.87   +00                                            1141000300164 
 1.185  -01 4.65   +00                                            1141000300165 
 1.190  -01 3.71   +00                                            1141000300166 
 1.190  -01 3.83   +00                                            1141000300167 
 1.195  -01 2.75   +00                                            1141000300168 
 1.200  -01 3.95   +00                                            1141000300169 
 1.200  -01 4.30   +00                                            1141000300170 
 1.205  -01 5.15   +00                                            1141000300171 
 1.205  -01 5.32   +00                                            1141000300172 
 1.210  -01 4.00   +00                                            1141000300173 
 1.215  -01 3.66   +00                                            1141000300174 
 1.220  -01 3.41   +00                                            1141000300175 
 1.225  -01 3.49   +00                                            1141000300176 
 1.230  -01 3.93   +00                                            1141000300177 
 1.235  -01 4.57   +00                                            1141000300178 
 1.240  -01 4.24   +00                                            1141000300179 
 1.245  -01 3.72   +00                                            1141000300180 
 1.250  -01 3.14   +00                                            1141000300181 
 1.255  -01 2.95   +00                                            1141000300182 
 1.260  -01 3.00   +00                                            1141000300183 
 1.265  -01 3.57   +00                                            1141000300184 
 1.270  -01 4.17   +00                                            1141000300185 
 1.275  -01 5.08   +00                                            1141000300186 
 1.280  -01 3.81   +00                                            1141000300187 
 1.285  -01 3.20   +00                                            1141000300188 
 1.290  -01 3.90   +00                                            1141000300189 
 1.295  -01 3.12   +00                                            1141000300190 
 1.300  -01 2.99   +00                                            1141000300191 
 1.305  -01 2.76   +00                                            1141000300192 
 1.310  -01 3.21   +00                                            1141000300193 
 1.315  -01 3.50   +00                                            1141000300194 
 1.320  -01 4.24   +00                                            1141000300195 
 1.330  -01 3.14   +00                                            1141000300196 
 1.335  -01 3.34   +00                                            1141000300197 
 1.340  -01 3.78   +00                                            1141000300198 
 1.345  -01 4.17   +00                                            1141000300199 
 1.350  -01 5.07   +00                                            1141000300200 
 1.355  -01 3.89   +00                                            1141000300201 
 1.360  -01 3.02   +00                                            1141000300202 
 1.365  -01 3.09   +00                                            1141000300203 
 1.370  -01 3.88   +00                                            1141000300204 
 1.375  -01 4.65   +00                                            1141000300205 
 1.380  -01 3.78   +00                                            1141000300206 
 1.385  -01 3.97   +00                                            1141000300207 
 1.388  -01 4.65   +00                                            1141000300208 
 1.390  -01 3.76   +00                                            1141000300209 
 1.395  -01 3.40   +00                                            1141000300210 
 1.400  -01 3.03   +00                                            1141000300211 
 1.405  -01 3.16   +00                                            1141000300212 
 1.410  -01 4.19   +00                                            1141000300213 
 1.415  -01 5.27   +00                                            1141000300214 
 1.420  -01 4.65   +00                                            1141000300215 
 1.425  -01 3.51   +00                                            1141000300216 
 1.430  -01 2.97   +00                                            1141000300217 
 1.435  -01 3.12   +00                                            1141000300218 
 1.440  -01 4.66   +00                                            1141000300219 
 1.445  -01 3.98   +00                                            1141000300220 
 1.450  -01 2.88   +00                                            1141000300221 
 1.455  -01 3.65   +00                                            1141000300222 
 1.460  -01 4.82   +00                                            1141000300223 
 1.465  -01 5.10   +00                                            1141000300224 
 1.470  -01 3.53   +00                                            1141000300225 
 1.475  -01 4.10   +00                                            1141000300226 
 1.480  -01 2.68   +00                                            1141000300227 
 1.483  -01 2.67   +00                                            1141000300228 
 1.485  -01 3.15   +00                                            1141000300229 
 1.490  -01 3.53   +00                                            1141000300230 
 1.495  -01 3.65   +00                                            1141000300231 
 1.500  -01 3.10   +00                                            1141000300232 
 1.503  -01 3.19   +00                                            1141000300233 
 1.508  -01 3.85   +00                                            1141000300234 
 1.513  -01 3.66   +00                                            1141000300235 
 1.520  -01 3.09   +00                                            1141000300236 
 1.523  -01 3.50   +00                                            1141000300237 
 1.528  -01 4.50   +00                                            1141000300238 
 1.533  -01 3.69   +00                                            1141000300239 
 1.538  -01 2.75   +00                                            1141000300240 
 1.543  -01 3.22   +00                                            1141000300241 
 1.548  -01 3.47   +00                                            1141000300242 
 1.550  -01 4.11   +00                                            1141000300243 
 1.555  -01 3.19   +00                                            1141000300244 
 1.560  -01 2.66   +00                                            1141000300245 
 1.568  -01 4.25   +00                                            1141000300246 
 1.573  -01 4.14   +00                                            1141000300247 
 1.575  -01 3.55   +00                                            1141000300248 
 1.578  -01 3.70   +00                                            1141000300249 
 1.580  -01 3.39   +00                                            1141000300250 
 1.585  -01 2.90   +00                                            1141000300251 
 1.590  -01 3.32   +00                                            1141000300252 
 1.595  -01 3.51   +00                                            1141000300253 
 1.600  -01 3.74   +00                                            1141000300254 
 1.605  -01 3.79   +00                                            1141000300255 
 1.610  -01 3.68   +00                                            1141000300256 
 1.615  -01 3.21   +00                                            1141000300257 
 1.620  -01 3.09   +00                                            1141000300258 
 1.620  -01 3.30   +00                                            1141000300259 
 1.625  -01 3.16   +00                                            1141000300260 
 1.625  -01 3.34   +00                                            1141000300261 
 1.630  -01 3.08   +00                                            1141000300262 
 1.630  -01 3.24   +00                                            1141000300263 
 1.635  -01 3.11   +00                                            1141000300264 
 1.640  -01 3.25   +00                                            1141000300265 
 1.645  -01 3.17   +00                                            1141000300266 
 1.650  -01 3.00   +00                                            1141000300267 
 1.655  -01 3.03   +00                                            1141000300268 
 1.660  -01 3.30   +00                                            1141000300269 
 1.665  -01 3.61   +00                                            1141000300270 
 1.670  -01 3.98   +00                                            1141000300271 
 1.675  -01 4.05   +00                                            1141000300272 
 1.680  -01 3.34   +00                                            1141000300273 
 1.685  -01 3.16   +00                                            1141000300274 
 1.690  -01 2.95   +00                                            1141000300275 
 1.695  -01 3.15   +00                                            1141000300276 
 1.700  -01 3.26   +00                                            1141000300277 
 1.705  -01 3.37   +00                                            1141000300278 
 1.710  -01 3.57   +00                                            1141000300279 
 1.715  -01 3.69   +00                                            1141000300280 
 1.720  -01 3.86   +00                                            1141000300281 
 1.725  -01 3.67   +00                                            1141000300282 
 1.730  -01 3.28   +00                                            1141000300283 
 1.735  -01 3.15   +00                                            1141000300284 
 1.740  -01 3.03   +00                                            1141000300285 
 1.745  -01 3.00   +00                                            1141000300286 
 1.750  -01 3.27   +00                                            1141000300287 
 1.755  -01 3.78   +00                                            1141000300288 
 1.760  -01 3.76   +00                                            1141000300289 
 1.765  -01 3.30   +00                                            1141000300290 
 1.770  -01 3.00   +00                                            1141000300291 
 1.775  -01 3.31   +00                                            1141000300292 
 1.780  -01 3.70   +00                                            1141000300293 
 1.785  -01 3.90   +00                                            1141000300294 
 1.790  -01 3.63   +00                                            1141000300295 
 1.800  -01 2.91   +00                                            1141000300296 
 1.805  -01 2.71   +00                                            1141000300297 
 1.810  -01 2.56   +00                                            1141000300298 
 1.815  -01 2.68   +00                                            1141000300299 
 1.820  -01 3.05   +00                                            1141000300300 
 1.820  -01 3.00   +00                                            1141000300301 
 1.825  -01 3.55   +00                                            1141000300302 
 1.830  -01 3.68   +00                                            1141000300303 
 1.835  -01 3.42   +00                                            1141000300304 
 1.840  -01 3.16   +00                                            1141000300305 
 1.845  -01 3.00   +00                                            1141000300306 
 1.850  -01 2.68   +00                                            1141000300307 
 1.855  -01 2.61   +00                                            1141000300308 
 1.860  -01 2.92   +00                                            1141000300309 
 1.865  -01 3.30   +00                                            1141000300310 
 1.865  -01 3.04   +00                                            1141000300311 
 1.870  -01 3.45   +00                                            1141000300312 
 1.875  -01 4.16   +00                                            1141000300313 
 1.880  -01 4.90   +00                                            1141000300314 
 1.880  -01 4.95   +00                                            1141000300315 
 1.885  -01 3.98   +00                                            1141000300316 
 1.885  -01 4.39   +00                                            1141000300317 
 1.890  -01 3.21   +00                                            1141000300318 
 1.895  -01 3.25   +00                                            1141000300319 
 1.900  -01 3.11   +00                                            1141000300320 
 1.905  -01 3.05   +00                                            1141000300321 
 1.910  -01 3.21   +00                                            1141000300322 
 1.915  -01 3.11   +00                                            1141000300323 
 1.915  -01 3.02   +00                                            1141000300324 
 1.920  -01 3.55   +00                                            1141000300325 
 1.925  -01 4.36   +00                                            1141000300326 
 1.930  -01 4.85   +00                                            1141000300327 
 1.935  -01 4.12   +00                                            1141000300328 
 1.940  -01 3.47   +00                                            1141000300329 
 1.940  -01 3.14   +00                                            1141000300330 
 1.943  -01 3.03   +00                                            1141000300331 
 1.950  -01 2.65   +00                                            1141000300332 
 1.955  -01 3.22   +00                                            1141000300333 
 1.955  -01 3.10   +00                                            1141000300334 
 1.960  -01 3.61   +00                                            1141000300335 
 1.965  -01 4.46   +00                                            1141000300336 
 1.970  -01 5.14   +00                                            1141000300337 
 1.975  -01 4.66   +00                                            1141000300338 
 1.980  -01 3.64   +00                                            1141000300339 
 1.985  -01 4.09   +00                                            1141000300340 
 1.990  -01 5.36   +00                                            1141000300341 
 1.995  -01 5.97   +00                                            1141000300342 
 2.000  -01 5.00   +00                                            1141000300343 
 2.010  -01 5.14   +00                                            1141000300344 
 2.015  -01 6.15   +00                                            1141000300345 
 2.020  -01 6.62   +00                                            1141000300346 
 2.025  -01 8.24   +00                                            1141000300347 
 2.025  -01 7.88   +00                                            1141000300348 
 2.028  -01 8.65   +00                                            1141000300349 
 2.030  -01 9.89   +00                                            1141000300350 
 2.040  -01 7.47   +00                                            1141000300351 
 2.050  -01 7.19   +00                                            1141000300352 
 2.055  -01 6.86   +00                                            1141000300353 
 2.060  -01 6.26   +00                                            1141000300354 
 2.105  -01 3.97   +00                                            1141000300355 
 2.115  -01 4.00   +00                                            1141000300356 
 2.120  -01 4.27   +00                                            1141000300357 
 2.125  -01 4.65   +00                                            1141000300358 
 2.130  -01 6.06   +00                                            1141000300359 
 2.135  -01 7.09   +00                                            1141000300360 
 2.140  -01 5.70   +00                                            1141000300361 
 2.150  -01 4.32   +00                                            1141000300362 
 2.150  -01 4.48   +00                                            1141000300363 
 2.155  -01 3.65   +00                                            1141000300364 
 2.155  -01 3.71   +00                                            1141000300365 
 2.160  -01 3.66   +00                                            1141000300366 
 2.165  -01 4.06   +00                                            1141000300367 
 2.175  -01 4.47   +00                                            1141000300368 
 2.175  -01 4.34   +00                                            1141000300369 
 2.180  -01 5.70   +00                                            1141000300370 
 2.180  -01 5.53   +00                                            1141000300371 
 2.185  -01 6.15   +00                                            1141000300372 
 2.190  -01 5.21   +00                                            1141000300373 
 2.190  -01 5.47   +00                                            1141000300374 
 2.195  -01 4.60   +00                                            1141000300375 
 2.195  -01 4.69   +00                                            1141000300376 
 2.200  -01 4.30   +00                                            1141000300377 
 2.200  -01 4.15   +00                                            1141000300378 
 2.205  -01 4.00   +00                                            1141000300379 
 2.210  -01 3.71   +00                                            1141000300380 
 2.215  -01 3.68   +00                                            1141000300381 
 2.220  -01 4.11   +00                                            1141000300382 
 2.220  -01 3.91   +00                                            1141000300383 
 2.225  -01 4.02   +00                                            1141000300384 
 2.225  -01 4.10   +00                                            1141000300385 
 2.230  -01 4.56   +00                                            1141000300386 
 2.230  -01 4.39   +00                                            1141000300387 
 2.235  -01 5.03   +00                                            1141000300388 
 2.235  -01 4.94   +00                                            1141000300389 
 2.240  -01 4.62   +00                                            1141000300390 
 2.240  -01 4.51   +00                                            1141000300391 
 2.245  -01 4.19   +00                                            1141000300392 
 2.250  -01 3.82   +00                                            1141000300393 
 2.260  -01 3.34   +00                                            1141000300394 
 2.265  -01 3.48   +00                                            1141000300395 
 2.265  -01 3.61   +00                                            1141000300396 
 2.270  -01 3.86   +00                                            1141000300397 
 2.275  -01 4.07   +00                                            1141000300398 
 2.275  -01 4.31   +00                                            1141000300399 
 2.280  -01 4.83   +00                                            1141000300400 
 2.285  -01 3.95   +00                                            1141000300401 
 2.285  -01 4.20   +00                                            1141000300402 
 2.290  -01 3.35   +00                                            1141000300403 
 2.290  -01 3.58   +00                                            1141000300404 
 2.295  -01 3.42   +00                                            1141000300405 
 2.295  -01 3.37   +00                                            1141000300406 
 2.300  -01 3.29   +00                                            1141000300407 
 2.305  -01 3.12   +00                                            1141000300408 
 2.310  -01 2.85   +00                                            1141000300409 
 2.315  -01 3.85   +00                                            1141000300410 
 2.320  -01 6.13   +00                                            1141000300411 
 2.325  -01 5.19   +00                                            1141000300412 
 2.330  -01 4.16   +00                                            1141000300413 
 2.335  -01 3.82   +00                                            1141000300414 
 2.340  -01 3.56   +00                                            1141000300415 
 2.345  -01 3.74   +00                                            1141000300416 
 2.350  -01 3.71   +00                                            1141000300417 
 2.355  -01 3.62   +00                                            1141000300418 
 2.360  -01 3.78   +00                                            1141000300419 
 2.370  -01 4.25   +00                                            1141000300420 
 2.390  -01 5.95   +00                                            1141000300421 
 2.500  -01 4.84   +00                                            1141000300422 
 2.510  -01 3.85   +00                                            1141000300423 
 2.520  -01 3.36   +00                                            1141000300424 
 2.530  -01 3.68   +00                                            1141000300425 
 2.535  -01 4.30   +00                                            1141000300426 
 2.540  -01 4.78   +00                                            1141000300427 
 2.545  -01 5.39   +00                                            1141000300428 
 2.550  -01 5.95   +00                                            1141000300429 
 2.555  -01 4.88   +00                                            1141000300430 
 2.560  -01 4.03   +00                                            1141000300431 
 2.570  -01 3.15   +00                                            1141000300432 
 2.580  -01 3.07   +00                                            1141000300433 
 2.590  -01 3.45   +00                                            1141000300434 
 2.600  -01 4.52   +00                                            1141000300435 
 2.605  -01 4.64   +00                                            1141000300436 
 2.610  -01 4.24   +00                                            1141000300437 
 2.620  -01 3.34   +00                                            1141000300438 
 2.640  -01 3.71   +00                                            1141000300439 
 2.645  -01 4.47   +00                                            1141000300440 
 2.650  -01 3.75   +00                                            1141000300441 
 2.680  -01 3.50   +00                                            1141000300442 
 2.685  -01 5.53   +00                                            1141000300443 
 2.690  -01 4.82   +00                                            1141000300444 
 2.695  -01 3.91   +00                                            1141000300445 
 2.710  -01 2.62   +00                                            1141000300446 
 2.715  -01 3.30   +00                                            1141000300447 
 2.720  -01 3.50   +00                                            1141000300448 
 2.725  -01 4.20   +00                                            1141000300449 
 2.730  -01 4.05   +00                                            1141000300450 
 2.740  -01 2.92   +00                                            1141000300451 
 2.770  -01 2.85   +00                                            1141000300452 
 2.780  -01 3.37   +00                                            1141000300453 
 2.790  -01 3.00   +00                                            1141000300454 
 2.800  -01 2.56   +00                                            1141000300455 
 2.850  -01 2.62   +00                                            1141000300456 
 2.860  -01 3.10   +00                                            1141000300457 
 2.865  -01 3.61   +00                                            1141000300458 
 2.870  -01 4.00   +00                                            1141000300459 
 2.880  -01 2.89   +00                                            1141000300460 
 2.890  -01 2.37   +00                                            1141000300461 
 2.900  -01 3.11   +00                                            1141000300462 
 2.905  -01 4.19   +00                                            1141000300463 
 2.910  -01 3.62   +00                                            1141000300464 
 2.915  -01 2.76   +00                                            1141000300465 
 2.920  -01 2.34   +00                                            1141000300466 
 2.930  -01 2.19   +00                                            1141000300467 
 2.940  -01 2.64   +00                                            1141000300468 
 2.945  -01 3.16   +00                                            1141000300469 
 2.950  -01 3.65   +00                                            1141000300470 
 2.955  -01 3.00   +00                                            1141000300471 
 2.960  -01 2.62   +00                                            1141000300472 
 2.965  -01 2.50   +00                                            1141000300473 
 2.970  -01 2.25   +00                                            1141000300474 
 2.975  -01 2.51   +00                                            1141000300475 
 2.980  -01 2.58   +00                                            1141000300476 
 2.990  -01 2.06   +00                                            1141000300477 
 3.055  -01 4.01   +00                                            1141000300478 
 3.060  -01 4.30   +00                                            1141000300479 
 3.065  -01 3.95   +00                                            1141000300480 
 3.100  -01 3.18   +00                                            1141000300481 
 3.105  -01 4.00   +00                                            1141000300482 
 3.110  -01 4.50   +00                                            1141000300483 
 3.115  -01 4.61   +00                                            1141000300484 
 3.120  -01 3.98   +00                                            1141000300485 
 3.130  -01 3.34   +00                                            1141000300486 
 3.155  -01 3.52   +00                                            1141000300487 
 3.160  -01 4.47   +00                                            1141000300488 
 3.165  -01 4.90   +00                                            1141000300489 
 3.170  -01 4.08   +00                                            1141000300490 
 3.200  -01 2.66   +00                                            1141000300491 
 3.205  -01 3.53   +00                                            1141000300492 
 3.210  -01 3.66   +00                                            1141000300493 
 3.215  -01 3.30   +00                                            1141000300494 
 3.230  -01 3.10   +00                                            1141000300495 
 3.235  -01 3.66   +00                                            1141000300496 
 3.240  -01 4.12   +00                                            1141000300497 
 3.245  -01 3.50   +00                                            1141000300498 
 3.250  -01 2.70   +00                                            1141000300499 
 3.260  -01 3.13   +00                                            1141000300500 
 3.265  -01 3.70   +00                                            1141000300501 
 3.270  -01 3.49   +00                                            1141000300502 
 3.275  -01 3.05   +00                                            1141000300503 
 3.290  -01 3.02   +00                                            1141000300504 
 3.300  -01 3.86   +00                                            1141000300505 
 3.310  -01 4.21   +00                                            1141000300506 
 3.320  -01 3.07   +00                                            1141000300507 
 3.330  -01 2.85   +00                                            1141000300508 
 3.335  -01 3.62   +00                                            1141000300509 
 3.340  -01 3.88   +00                                            1141000300510 
 3.345  -01 3.18   +00                                            1141000300511 
 3.350  -01 2.87   +00                                            1141000300512 
 3.360  -01 2.60   +00                                            1141000300513 
 3.370  -01 2.86   +00                                            1141000300514 
 3.380  -01 3.35   +00                                            1141000300515 
 3.385  -01 4.11   +00                                            1141000300516 
 3.390  -01 3.48   +00                                            1141000300517 
 3.400  -01 2.85   +00                                            1141000300518 
 3.410  -01 2.66   +00                                            1141000300519 
 3.420  -01 2.89   +00                                            1141000300520 
 3.425  -01 3.13   +00                                            1141000300521 
 3.430  -01 3.94   +00                                            1141000300522 
 3.435  -01 4.80   +00                                            1141000300523 
 3.440  -01 3.85   +00                                            1141000300524 
 3.445  -01 3.14   +00                                            1141000300525 
 3.450  -01 2.90   +00                                            1141000300526 
 3.455  -01 3.50   +00                                            1141000300527 
 3.460  -01 3.75   +00                                            1141000300528 
 3.465  -01 3.06   +00                                            1141000300529 
ENDDATA            521          0                                 1141000300530 
ENDSUBENT          529          0                                 1141000399999 
SUBENT        11410004   19820813                             00001141000400001 
BIB                  1          3                                 1141000400002 
REACTION  1(11-NA-23(N,0),,EN)                                    1141000400003 
          2(11-NA-23(N,0),,J)                                     1141000400004 
          3(11-NA-23(N,0),,L)                                     1141000400005 
ENDBIB               3          0                                 1141000400006 
NOCOMMON             0          0                                 1141000400007 
DATA                 3         86                                 1141000400008 
DATA      1DATA      2DATA      3                                 1141000400009 
MEV        NO-DIM     NO-DIM                                      1141000400010 
 2.95   -03 2.         0.                                         1141000400011 
 5.41   -02 3.         1.                                         1141000400012 
 5.50   -02 2.         0.                                         1141000400013 
 6.15   -02 0.         1.                                         1141000400014 
 6.36   -02 1.         1.                                         1141000400015 
 6.68   -02 1.         1.                                         1141000400016 
 7.25   -02 2.         1.                                         1141000400017 
 7.57   -02 0.         1.                                         1141000400018 
 7.76   -02 0.         1.                                         1141000400019 
 7.99   -02 0.         1.                                         1141000400020 
 8.15   -02 0.         1.                                         1141000400021 
 8.39   -02 0.         1.                                         1141000400022 
 8.53   -02 0.         1.                                         1141000400023 
 8.64   -02 0.         1.                                         1141000400024 
 8.84   -02 0.         1.                                         1141000400025 
 9.13   -02 1.         1.                                         1141000400026 
 9.30   -02 1.         0.                                         1141000400027 
 9.65   -02 0.         1.                                         1141000400028 
 9.86   -02 1.         1.                                         1141000400029 
 1.009  -01 1.         1.                                         1141000400030 
 1.032  -01 0.         1.                                         1141000400031 
 1.043  -01 0.         1.                                         1141000400032 
 1.059  -01 1.         1.                                         1141000400033 
 1.074  -01 1.         0.                                         1141000400034 
 1.115  -01 1.         1.                                         1141000400035 
 1.135  -01 0.         1.                                         1141000400036 
 1.167  -01 1.         1.                                         1141000400037 
 1.184  -01 1.         1.                                         1141000400038 
 1.202  -01 1.         0.                                         1141000400039 
 1.240  -01 0.         1.                                         1141000400040 
 1.272  -01 1.         1.                                         1141000400041 
 1.292  -01 0.         1.                                         1141000400042 
 1.318  -01 0.         1.                                         1141000400043 
 1.349  -01 1.         1.                                         1141000400044 
 1.375  -01 1.         2.                                         1141000400045 
 1.389  -01 1.         2.                                         1141000400046 
 1.415  -01 1.         1.                                         1141000400047 
 1.442  -01 1.         2.                                         1141000400048 
 1.460  -01 1.         2.                                         1141000400049 
 1.476  -01 0.         1.                                         1141000400050 
 1.493  -01 0.         1.                                         1141000400051 
 1.507  -01 0.         1.                                         1141000400052 
 1.532  -01 1.         2.                                         1141000400053 
 1.549  -01 1.         2.                                         1141000400054 
 1.566  -01 1.         2.                                         1141000400055 
 1.608  -01 0.         1.                                         1141000400056 
 1.673  -01 0.         1.                                         1141000400057 
 1.718  -01 0.         1.                                         1141000400058 
 1.757  -01 0.         1.                                         1141000400059 
 1.784  -01 0.         1.                                         1141000400060 
 1.826  -01 0.         1.                                         1141000400061 
 1.880  -01 1.         1.                                         1141000400062 
 1.930  -01 1.         2.                                         1141000400063 
 1.967  -01 1.         2.                                         1141000400064 
 1.995  -01 2.         2.                                         1141000400065 
 2.027  -01 3.         1.                                         1141000400066 
 2.052  -01 1.         0.                                         1141000400067 
 2.137  -01 2.         1.                                         1141000400068 
 2.182  -01 2.         1.                                         1141000400069 
 2.240  -01 1.         1.                                         1141000400070 
 2.277  -01 1.         1.                                         1141000400071 
 2.319  -01 2.         0.                                         1141000400072 
 2.420  -01 2.         1.                                         1141000400073 
 2.463  -01 1.         0.                                         1141000400074 
 2.550  -01 2.         2.                                         1141000400075 
 2.605  -01 1.         2.                                         1141000400076 
 2.647  -01 1.         2.                                         1141000400077 
 2.685  -01 2.         2.                                         1141000400078 
 2.728  -01 1.         2.                                         1141000400079 
 2.785  -01 1.         2.                                         1141000400080 
 2.870  -01 1.         2.                                         1141000400081 
 2.907  -01 2.         2.                                         1141000400082 
 2.947  -01 1.         2.                                         1141000400083 
 2.980  -01 0.         2.                                         1141000400084 
 3.025  -01 2.         0.                                         1141000400085 
 3.065  -01 0.         2.                                         1141000400086 
 3.118  -01 1.         2.                                         1141000400087 
 3.165  -01 2.         3.                                         1141000400088 
 3.210  -01 1.         3.                                         1141000400089 
 3.240  -01 1.         2.                                         1141000400090 
 3.268  -01 1.         3.                                         1141000400091 
 3.308  -01 1.         2.                                         1141000400092 
 3.342  -01 1.         3.                                         1141000400093 
 3.383  -01 1.         2.                                         1141000400094 
 3.436  -01 2.         3.                                         1141000400095 
 3.460  -01 1.         3.                                         1141000400096 
ENDDATA             88          0                                 1141000400097 
ENDSUBENT           96          0                                 1141000499999 
SUBENT        11410005   19820813                             00001141000500001 
BIB                  1          1                                 1141000500002 
REACTION   (11-NA-23(N,EL),,WID)                                  1141000500003 
ENDBIB               1          0                                 1141000500004 
NOCOMMON             0          0                                 1141000500005 
DATA                 2         86                                 1141000500006 
EN-RES     DATA                                                   1141000500007 
MEV        MILLI-EV                                               1141000500008 
 2.95   -03 2.20   +05                                            1141000500009 
 5.41   -02 7.50   +05                                            1141000500010 
 5.50   -02 2.00   +05                                            1141000500011 
 6.15   -02 3.00   +05                                            1141000500012 
 6.36   -02 4.00   +05                                            1141000500013 
 6.68   -02 4.00   +05                                            1141000500014 
 7.25   -02 3.00   +05                                            1141000500015 
 7.57   -02 5.50   +05                                            1141000500016 
 7.76   -02 5.00   +05                                            1141000500017 
 7.99   -02 6.00   +05                                            1141000500018 
 8.15   -02 7.00   +05                                            1141000500019 
 8.39   -02 6.50   +05                                            1141000500020 
 8.53   -02 3.50   +05                                            1141000500021 
 8.64   -02 3.00   +05                                            1141000500022 
 8.84   -02 4.00   +05                                            1141000500023 
 9.13   -02 4.50   +05                                            1141000500024 
 9.30   -02 5.00   +05                                            1141000500025 
 9.65   -02 1.000  +06                                            1141000500026 
 9.86   -02 4.50   +05                                            1141000500027 
 1.009  -01 3.50   +05                                            1141000500028 
 1.032  -01 5.00   +05                                            1141000500029 
 1.043  -01 5.50   +05                                            1141000500030 
 1.059  -01 3.50   +05                                            1141000500031 
 1.074  -01 4.50   +05                                            1141000500032 
 1.115  -01 5.50   +05                                            1141000500033 
 1.135  -01 6.00   +05                                            1141000500034 
 1.167  -01 5.00   +05                                            1141000500035 
 1.184  -01 6.00   +05                                            1141000500036 
 1.202  -01 5.00   +05                                            1141000500037 
 1.240  -01 9.00   +05                                            1141000500038 
 1.272  -01 5.00   +05                                            1141000500039 
 1.292  -01 7.00   +05                                            1141000500040 
 1.318  -01 1.000  +06                                            1141000500041 
 1.349  -01 7.00   +05                                            1141000500042 
 1.375  -01 4.00   +05                                            1141000500043 
 1.389  -01 4.00   +05                                            1141000500044 
 1.415  -01 7.00   +05                                            1141000500045 
 1.442  -01 5.00   +05                                            1141000500046 
 1.460  -01 5.00   +05                                            1141000500047 
 1.476  -01 4.00   +05                                            1141000500048 
 1.493  -01 7.50   +05                                            1141000500049 
 1.507  -01 8.00   +05                                            1141000500050 
 1.532  -01 4.00   +05                                            1141000500051 
 1.549  -01 4.50   +05                                            1141000500052 
 1.566  -01 4.50   +05                                            1141000500053 
 1.608  -01 2.000  +06                                            1141000500054 
 1.673  -01 1.70   +05                                            1141000500055 
 1.718  -01 2.20   +05                                            1141000500056 
 1.757  -01 1.90   +05                                            1141000500057 
 1.784  -01 1.70   +05                                            1141000500058 
 1.826  -01 2.00   +05                                            1141000500059 
 1.880  -01 1.60   +05                                            1141000500060 
 1.930  -01 1.20   +05                                            1141000500061 
 1.967  -01 1.10   +05                                            1141000500062 
 1.995  -01 7.0    +04                                            1141000500063 
 2.027  -01 1.80   +05                                            1141000500064 
 2.052  -01 3.60   +05                                            1141000500065 
 2.137  -01 1.30   +05                                            1141000500066 
 2.182  -01 1.20   +05                                            1141000500067 
 2.240  -01 1.70   +05                                            1141000500068 
 2.277  -01 1.70   +05                                            1141000500069 
 2.319  -01 9.0    +04                                            1141000500070 
 2.420  -01 6.00   +05                                            1141000500071 
 2.463  -01 3.00   +05                                            1141000500072 
 2.550  -01 1.30   +05                                            1141000500073 
 2.605  -01 1.70   +05                                            1141000500074 
 2.647  -01 9.0    +04                                            1141000500075 
 2.685  -01 1.10   +05                                            1141000500076 
 2.728  -01 1.10   +05                                            1141000500077 
 2.785  -01 1.30   +05                                            1141000500078 
 2.870  -01 1.30   +05                                            1141000500079 
 2.907  -01 9.0    +04                                            1141000500080 
 2.947  -01 1.30   +05                                            1141000500081 
 2.980  -01 2.00   +05                                            1141000500082 
 3.025  -01 2.50   +05                                            1141000500083 
 3.065  -01 1.60   +05                                            1141000500084 
 3.118  -01 1.50   +05                                            1141000500085 
 3.165  -01 9.0    +04                                            1141000500086 
 3.210  -01 9.0    +04                                            1141000500087 
 3.240  -01 1.30   +05                                            1141000500088 
 3.268  -01 9.0    +04                                            1141000500089 
 3.308  -01 2.00   +05                                            1141000500090 
 3.342  -01 1.00   +05                                            1141000500091 
 3.383  -01 1.70   +05                                            1141000500092 
 3.436  -01 1.00   +05                                            1141000500093 
 3.460  -01 7.50   +05                                            1141000500094 
ENDDATA             88          0                                 1141000500095 
ENDSUBENT           94          0                                 1141000599999 
ENDENTRY             5          0                                 1141099999999 
