ENTRY            12144   19830812                             00001214400000001 
SUBENT        12144001   19830812                             00001214400100001 
BIB                  7          8                                 1214400100002 
INSTITUTE  (1USAANL)                                              1214400100003 
REFERENCE  (C,66PARIS,1,399,6610)                                 1214400100004 
AUTHOR     (A.B.SMITH,D.LISTER,J.F.WHALEN)                        1214400100005 
TITLE      MICROSCOPIC NEUTRON SCATTERING CROSS-SECTIONS FOR REACT1214400100006 
           DESIGN                                                 1214400100007 
FACILITY   (VDG)                                                  1214400100008 
METHOD     (TOF)                                                  1214400100009 
HISTORY    (830614C)                                              1214400100010 
ENDBIB               8          0                                 1214400100011 
NOCOMMON             0          0                                 1214400100012 
ENDSUBENT           11          0                                 1214400199999 
SUBENT        12144002   19860407                             00001214400200001 
BIB                  4          4                                 1214400200002 
REACTION   (26-FE-0(N,EL)26-FE-0,,SIG)                            1214400200003 
ERR-ANALYS ESTIMATED CROSS-SECTION ERROR IS 5 - 8 PERCENT.        1214400200004 
STATUS     (COREL,12144003) TAKEN FROM PRIVATE COMM, SMITH,68/4   1214400200005 
HISTORY    (860407A) REACTION PRODUCT ADDED.                      1214400200006 
ENDBIB               4          0                                 1214400200007 
COMMON               1          3                                 1214400200008 
EN-RSL                                                            1214400200009 
KEV                                                               1214400200010 
 50.                                                              1214400200011 
ENDCOMMON            3          0                                 1214400200012 
DATA                 2         95                                 1214400200013 
EN         DATA                                                   1214400200014 
KEV        B                                                      1214400200015 
 318.       3.58                                                  1214400200016 
 322.       3.65                                                  1214400200017 
 334.       3.72                                                  1214400200018 
 347.       3.79                                                  1214400200019 
 353.       3.40                                                  1214400200020 
 374.       3.21                                                  1214400200021 
 381.       3.38                                                  1214400200022 
 396.       3.68                                                  1214400200023 
 412.       4.00                                                  1214400200024 
 428.       3.99                                                  1214400200025 
 443.       4.01                                                  1214400200026 
 459.       3.84                                                  1214400200027 
 474.       3.63                                                  1214400200028 
 483.       3.47                                                  1214400200029 
 514.       3.34                                                  1214400200030 
 525.       3.25                                                  1214400200031 
 535.       3.28                                                  1214400200032 
 545.       3.11                                                  1214400200033 
 549.       3.07                                                  1214400200034 
 556.       3.13                                                  1214400200035 
 571.       2.71                                                  1214400200036 
 579.       2.62                                                  1214400200037 
 597.       2.21                                                  1214400200038 
 626.       1.99                                                  1214400200039 
 641.       2.18                                                  1214400200040 
 662.       2.43                                                  1214400200041 
 674.       2.38                                                  1214400200042 
 681.       2.52                                                  1214400200043 
 700.       2.78                                                  1214400200044 
 712.       2.59                                                  1214400200045 
 725.       2.85                                                  1214400200046 
 737.       3.27                                                  1214400200047 
 749.       3.48                                                  1214400200048 
 762.       3.65                                                  1214400200049 
 774.       3.77                                                  1214400200050 
 781.       3.88                                                  1214400200051 
 800.       3.84                                                  1214400200052 
 812.       3.80                                                  1214400200053 
 825.       3.45                                                  1214400200054 
 837.       3.49                                                  1214400200055 
 849.       3.28                                                  1214400200056 
 862.       3.25                                                  1214400200057 
 874.       2.99                                                  1214400200058 
 887.       3.06                                                  1214400200059 
 899.       2.95                                                  1214400200060 
 912.       2.87                                                  1214400200061 
 924.       2.46                                                  1214400200062 
 937.       2.39                                                  1214400200063 
 948.       2.14                                                  1214400200064 
 961.       2.06                                                  1214400200065 
 967.       1.92                                                  1214400200066 
 982.       2.16                                                  1214400200067 
 989.       2.24                                                  1214400200068 
1008.       2.41                                                  1214400200069 
1039.       2.63                                                  1214400200070 
1052.       2.69                                                  1214400200071 
1067.       2.76                                                  1214400200072 
1071.       2.79                                                  1214400200073 
1087.       2.55                                                  1214400200074 
1112.       2.38                                                  1214400200075 
1123.       2.33                                                  1214400200076 
1132.       2.25                                                  1214400200077 
1135.       2.29                                                  1214400200078 
1137.       2.28                                                  1214400200079 
1140.       2.27                                                  1214400200080 
1145.       2.28                                                  1214400200081 
1178.       2.06                                                  1214400200082 
1193.       2.02                                                  1214400200083 
1226.       2.29                                                  1214400200084 
1230.       2.34                                                  1214400200085 
1235.       2.43                                                  1214400200086 
1248.       2.51                                                  1214400200087 
1257.       2.61                                                  1214400200088 
1260.       2.61                                                  1214400200089 
1275.       2.39                                                  1214400200090 
1279.       2.36                                                  1214400200091 
1289.       2.39                                                  1214400200092 
1299.       2.27                                                  1214400200093 
1310.       2.33                                                  1214400200094 
1324.       2.28                                                  1214400200095 
1329.       2.36                                                  1214400200096 
1339.       2.42                                                  1214400200097 
1349.       2.43                                                  1214400200098 
1360.       2.42                                                  1214400200099 
1378.       2.29                                                  1214400200100 
1382.       2.30                                                  1214400200101 
1390.       2.29                                                  1214400200102 
1399.       2.17                                                  1214400200103 
1408.       2.14                                                  1214400200104 
1421.       2.08                                                  1214400200105 
1424.       2.07                                                  1214400200106 
1429.       2.08                                                  1214400200107 
1439.       2.17                                                  1214400200108 
1449.       2.19                                                  1214400200109 
1460.       2.34                                                  1214400200110 
ENDDATA             97          0                                 1214400200111 
ENDSUBENT          110          0                                 1214400299999 
SUBENT        12144003   19860407                             00001214400300001 
BIB                  3          3                                 1214400300002 
REACTION   (26-FE-0(N,EL)26-FE-0,,DA,,LEG)                        1214400300003 
STATUS     (COREL,12144002) TAKEN FROM PRIVATE COMM, SMITH,68/4   1214400300004 
HISTORY    (860407A) REACTION PRODUCT ADDED.                      1214400300005 
ENDBIB               3          0                                 1214400300006 
COMMON               1          3                                 1214400300007 
EN-RSL                                                            1214400300008 
KEV                                                               1214400300009 
 50.                                                              1214400300010 
ENDCOMMON            3          0                                 1214400300011 
DATA                 4        470                                 1214400300012 
EN         NUMBER     DATA       DATA-ERR                         1214400300013 
KEV        NO-DIM     NO-DIM     NO-DIM                           1214400300014 
 318.       1.         0.394      0.054                           1214400300015 
 318.       2.         0.231      0.076                           1214400300016 
 318.       3.         0.023      0.099                           1214400300017 
 318.       4.         0.075      0.065                           1214400300018 
 318.       5.         0.014      0.017                           1214400300019 
 322.       1.         0.396      0.051                           1214400300020 
 322.       2.         0.269      0.072                           1214400300021 
 322.       3.         0.006      0.094                           1214400300022 
 322.       4.         0.091      0.078                           1214400300023 
 322.       5.         0.017      0.020                           1214400300024 
 334.       1.         0.397      0.044                           1214400300025 
 334.       2.         0.283      0.072                           1214400300026 
 334.       3.         0.006      0.097                           1214400300027 
 334.       4.         0.080      0.081                           1214400300028 
 334.       5.         0.002      0.046                           1214400300029 
 347.       1.         0.337      0.042                           1214400300030 
 347.       2.         0.230      0.070                           1214400300031 
 347.       3.        -0.070      0.094                           1214400300032 
 347.       4.         0.071      0.078                           1214400300033 
 347.       5.        -0.014      0.041                           1214400300034 
 353.       1.         0.351      0.032                           1214400300035 
 353.       2.         0.241      0.059                           1214400300036 
 353.       3.        -0.039      0.082                           1214400300037 
 353.       4.         0.089      0.098                           1214400300038 
 353.       5.        -0.018      0.052                           1214400300039 
 374.       1.         0.275      0.018                           1214400300040 
 374.       2.         0.181      0.036                           1214400300041 
 374.       3.         0.022      0.055                           1214400300042 
 374.       4.         0.078      0.058                           1214400300043 
 374.       5.        -0.003      0.045                           1214400300044 
 381.       1.         0.288      0.017                           1214400300045 
 381.       2.         0.185      0.037                           1214400300046 
 381.       3.        -0.004      0.058                           1214400300047 
 381.       4.         0.082      0.060                           1214400300048 
 381.       5.        -0.004      0.057                           1214400300049 
 396.       1.         0.221      0.024                           1214400300050 
 396.       2.         0.107      0.033                           1214400300051 
 396.       3.         0.006      0.051                           1214400300052 
 396.       4.         0.045      0.053                           1214400300053 
 396.       5.         0.011      0.047                           1214400300054 
 412.       1.         0.286      0.022                           1214400300055 
 412.       2.         0.144      0.030                           1214400300056 
 412.       3.         0.049      0.045                           1214400300057 
 412.       4.         0.034      0.047                           1214400300058 
 412.       5.        -0.004      0.040                           1214400300059 
 428.       1.         0.317      0.025                           1214400300060 
 428.       2.         0.205      0.035                           1214400300061 
 428.       3.         0.037      0.052                           1214400300062 
 428.       4.         0.009      0.054                           1214400300063 
 428.       5.        -0.018      0.035                           1214400300064 
 443.       1.         0.526      0.024                           1214400300065 
 443.       2.         0.296      0.031                           1214400300066 
 443.       3.         0.054      0.048                           1214400300067 
 443.       4.        -0.002      0.052                           1214400300068 
 443.       5.        -0.040      0.053                           1214400300069 
 459.       1.         0.655      0.019                           1214400300070 
 459.       2.         0.375      0.026                           1214400300071 
 459.       3.         0.068      0.039                           1214400300072 
 459.       4.         0.036      0.043                           1214400300073 
 459.       5.        -0.006      0.041                           1214400300074 
 474.       1.         0.579      0.022                           1214400300075 
 474.       2.         0.363      0.031                           1214400300076 
 474.       3.         0.058      0.045                           1214400300077 
 474.       4.         0.074      0.049                           1214400300078 
 474.       5.         0.009      0.028                           1214400300079 
 483.       1.         0.635      0.023                           1214400300080 
 483.       2.         0.376      0.031                           1214400300081 
 483.       3.         0.092      0.046                           1214400300082 
 483.       4.         0.086      0.050                           1214400300083 
 483.       5.         0.012      0.037                           1214400300084 
 514.       1.         0.661      0.022                           1214400300085 
 514.       2.         0.422      0.030                           1214400300086 
 514.       3.         0.110      0.044                           1214400300087 
 514.       4.         0.071      0.049                           1214400300088 
 514.       5.         0.001      0.038                           1214400300089 
 525.       1.         0.648      0.023                           1214400300090 
 525.       2.         0.424      0.032                           1214400300091 
 525.       3.         0.091      0.046                           1214400300092 
 525.       4.         0.074      0.051                           1214400300093 
 525.       5.        -0.019      0.031                           1214400300094 
 535.       1.         0.728      0.020                           1214400300095 
 535.       2.         0.477      0.027                           1214400300096 
 535.       3.         0.114      0.041                           1214400300097 
 535.       4.         0.063      0.044                           1214400300098 
 535.       5.        -0.029      0.037                           1214400300099 
 545.       1.         0.767      0.024                           1214400300100 
 545.       2.         0.504      0.028                           1214400300101 
 545.       3.         0.108      0.043                           1214400300102 
 545.       4.         0.056      0.045                           1214400300103 
 545.       5.        -0.029      0.027                           1214400300104 
 549.       1.         0.802      0.023                           1214400300105 
 549.       2.         0.537      0.027                           1214400300106 
 549.       3.         0.122      0.040                           1214400300107 
 549.       4.         0.066      0.042                           1214400300108 
 549.       5.        -0.017      0.018                           1214400300109 
 556.       1.         0.841      0.024                           1214400300110 
 556.       2.         0.559      0.026                           1214400300111 
 556.       3.         0.120      0.041                           1214400300112 
 556.       4.         0.062      0.042                           1214400300113 
 556.       5.        -0.021      0.022                           1214400300114 
 571.       1.         0.876      0.021                           1214400300115 
 571.       2.         0.561      0.023                           1214400300116 
 571.       3.         0.097      0.034                           1214400300117 
 571.       4.         0.050      0.035                           1214400300118 
 571.       5.        -0.014      0.010                           1214400300119 
 579.       1.         0.966      0.022                           1214400300120 
 579.       2.         0.625      0.020                           1214400300121 
 579.       3.         0.122      0.032                           1214400300122 
 579.       4.         0.026      0.032                           1214400300123 
 579.       5.        -0.019      0.014                           1214400300124 
 597.       1.         1.015      0.023                           1214400300125 
 597.       2.         0.595      0.021                           1214400300126 
 597.       3.         0.065      0.033                           1214400300127 
 597.       4.         0.014      0.034                           1214400300128 
 597.       5.        -0.002      0.016                           1214400300129 
 626.       1.         0.832      0.020                           1214400300130 
 626.       2.         0.673      0.029                           1214400300131 
 626.       3.         0.017      0.040                           1214400300132 
 626.       4.         0.124      0.045                           1214400300133 
 626.       5.        -0.013      0.014                           1214400300134 
 641.       1.         0.637      0.025                           1214400300135 
 641.       2.         0.724      0.034                           1214400300136 
 641.       3.         0.080      0.049                           1214400300137 
 641.       4.         0.162      0.054                           1214400300138 
 641.       5.        -0.021      0.029                           1214400300139 
 662.       1.         0.436      0.023                           1214400300140 
 662.       2.         0.737      0.031                           1214400300141 
 662.       3.         0.155      0.045                           1214400300142 
 662.       4.         0.227      0.065                           1214400300143 
 662.       5.        -0.025      0.031                           1214400300144 
 674.       1.         0.437      0.025                           1214400300145 
 674.       2.         0.743      0.034                           1214400300146 
 674.       3.         0.171      0.049                           1214400300147 
 674.       4.         0.233      0.070                           1214400300148 
 674.       5.        -0.016      0.027                           1214400300149 
 681.       1.         0.477      0.017                           1214400300150 
 681.       2.         0.731      0.021                           1214400300151 
 681.       3.         0.237      0.032                           1214400300152 
 681.       4.         0.194      0.055                           1214400300153 
 681.       5.        -0.020      0.034                           1214400300154 
 700.       1.         0.625      0.015                           1214400300155 
 700.       2.         0.720      0.018                           1214400300156 
 700.       3.         0.222      0.028                           1214400300157 
 700.       4.         0.170      0.046                           1214400300158 
 700.       5.        -0.007      0.030                           1214400300159 
 712.       1.         0.605      0.018                           1214400300160 
 712.       2.         0.713      0.023                           1214400300161 
 712.       3.         0.171      0.034                           1214400300162 
 712.       4.         0.090      0.039                           1214400300163 
 712.       5.        -0.020      0.028                           1214400300164 
 725.       1.         0.657      0.023                           1214400300165 
 725.       2.         0.654      0.032                           1214400300166 
 725.       3.         0.156      0.044                           1214400300167 
 725.       4.         0.050      0.051                           1214400300168 
 725.       5.         0.002      0.015                           1214400300169 
 737.       1.         0.590      0.025                           1214400300170 
 737.       2.         0.648      0.035                           1214400300171 
 737.       3.         0.140      0.049                           1214400300172 
 737.       4.         0.025      0.056                           1214400300173 
 737.       5.        -0.011      0.031                           1214400300174 
 749.       1.         0.519      0.030                           1214400300175 
 749.       2.         0.625      0.040                           1214400300176 
 749.       3.         0.065      0.058                           1214400300177 
 749.       4.         0.027      0.066                           1214400300178 
 749.       5.        -0.029      0.044                           1214400300179 
 762.       1.         0.552      0.029                           1214400300180 
 762.       2.         0.663      0.040                           1214400300181 
 762.       3.         0.063      0.057                           1214400300182 
 762.       4.         0.011      0.064                           1214400300183 
 762.       5.        -0.033      0.041                           1214400300184 
 774.       1.         0.564      0.033                           1214400300185 
 774.       2.         0.680      0.046                           1214400300186 
 774.       3.         0.091      0.066                           1214400300187 
 774.       4.         0.041      0.072                           1214400300188 
 774.       5.        -0.033      0.041                           1214400300189 
 781.       1.         0.579      0.029                           1214400300190 
 781.       2.         0.725      0.039                           1214400300191 
 781.       3.         0.081      0.058                           1214400300192 
 781.       4.         0.073      0.063                           1214400300193 
 781.       5.        -0.041      0.052                           1214400300194 
 800.       1.         0.731      0.029                           1214400300195 
 800.       2.         0.750      0.039                           1214400300196 
 800.       3.         0.125      0.059                           1214400300197 
 800.       4.         0.102      0.046                           1214400300198 
 800.       5.        -0.046      0.059                           1214400300199 
 812.       1.         0.871      0.027                           1214400300200 
 812.       2.         0.778      0.036                           1214400300201 
 812.       3.         0.198      0.054                           1214400300202 
 812.       4.         0.102      0.041                           1214400300203 
 812.       5.        -0.041      0.052                           1214400300204 
 825.       1.         0.907      0.030                           1214400300205 
 825.       2.         0.793      0.041                           1214400300206 
 825.       3.         0.240      0.060                           1214400300207 
 825.       4.         0.096      0.048                           1214400300208 
 825.       5.        -0.038      0.045                           1214400300209 
 837.       1.         1.021      0.028                           1214400300210 
 837.       2.         0.868      0.038                           1214400300211 
 837.       3.         0.271      0.055                           1214400300212 
 837.       4.         0.113      0.045                           1214400300213 
 837.       5.        -0.038      0.045                           1214400300214 
 849.       1.         0.987      0.024                           1214400300215 
 849.       2.         0.868      0.035                           1214400300216 
 849.       3.         0.275      0.046                           1214400300217 
 849.       4.         0.092      0.056                           1214400300218 
 849.       5.        -0.019      0.019                           1214400300219 
 862.       1.         1.022      0.031                           1214400300220 
 862.       2.         0.905      0.045                           1214400300221 
 862.       3.         0.310      0.057                           1214400300222 
 862.       4.         0.113      0.073                           1214400300223 
 862.       5.        -0.011      0.012                           1214400300224 
 874.       1.         0.964      0.034                           1214400300225 
 874.       2.         0.942      0.051                           1214400300226 
 874.       3.         0.302      0.064                           1214400300227 
 874.       4.         0.170      0.080                           1214400300228 
 874.       5.         0.000      0.000                           1214400300229 
 887.       1.         1.034      0.034                           1214400300230 
 887.       2.         0.974      0.049                           1214400300231 
 887.       3.         0.321      0.063                           1214400300232 
 887.       4.         0.193      0.079                           1214400300233 
 887.       5.         0.029      0.015                           1214400300234 
 899.       1.         1.067      0.044                           1214400300235 
 899.       2.         0.950      0.041                           1214400300236 
 899.       3.         0.300      0.055                           1214400300237 
 899.       4.         0.169      0.067                           1214400300238 
 899.       5.         0.026      0.019                           1214400300239 
 912.       1.         1.145      0.044                           1214400300240 
 912.       2.         0.969      0.040                           1214400300241 
 912.       3.         0.309      0.056                           1214400300242 
 912.       4.         0.191      0.065                           1214400300243 
 912.       5.         0.034      0.034                           1214400300244 
 924.       1.         1.110      0.040                           1214400300245 
 924.       2.         1.011      0.034                           1214400300246 
 924.       3.         0.317      0.049                           1214400300247 
 924.       4.         0.178      0.054                           1214400300248 
 924.       5.         0.034      0.034                           1214400300249 
 937.       1.         1.105      0.041                           1214400300250 
 937.       2.         1.007      0.035                           1214400300251 
 937.       3.         0.321      0.050                           1214400300252 
 937.       4.         0.107      0.059                           1214400300253 
 937.       5.         0.034      0.034                           1214400300254 
 948.       1.         1.058      0.041                           1214400300255 
 948.       2.         1.007      0.035                           1214400300256 
 948.       3.         0.275      0.050                           1214400300257 
 948.       4.         0.071      0.059                           1214400300258 
 948.       5.        -0.004      0.034                           1214400300259 
 961.       1.         0.984      0.030                           1214400300260 
 961.       2.         1.005      0.041                           1214400300261 
 961.       3.         0.260      0.056                           1214400300262 
 961.       4.         0.030      0.069                           1214400300263 
 961.       5.        -0.001      0.029                           1214400300264 
 967.       1.         0.908      0.031                           1214400300265 
 967.       2.         1.010      0.044                           1214400300266 
 967.       3.         0.255      0.057                           1214400300267 
 967.       4.        -0.001      0.072                           1214400300268 
 967.       5.        -0.011      0.018                           1214400300269 
 982.       1.         0.906      0.034                           1214400300270 
 982.       2.         0.944      0.048                           1214400300271 
 982.       3.         0.217      0.063                           1214400300272 
 982.       4.        -0.055      0.081                           1214400300273 
 982.       5.        -0.011      0.018                           1214400300274 
 989.       1.         0.925      0.030                           1214400300275 
 989.       2.         0.907      0.042                           1214400300276 
 989.       3.         0.196      0.057                           1214400300277 
 989.       4.        -0.077      0.071                           1214400300278 
 989.       5.        -0.015      0.024                           1214400300279 
1008.       1.         0.844      0.026                           1214400300280 
1008.       2.         0.875      0.037                           1214400300281 
1008.       3.         0.208      0.047                           1214400300282 
1008.       4.        -0.062      0.061                           1214400300283 
1008.       5.        -0.010      0.012                           1214400300284 
1039.       1.         0.727      0.027                           1214400300285 
1039.       2.         0.873      0.037                           1214400300286 
1039.       3.         0.165      0.051                           1214400300287 
1039.       4.         0.008      0.061                           1214400300288 
1039.       5.        -0.003      0.022                           1214400300289 
1052.       1.         0.667      0.029                           1214400300290 
1052.       2.         0.845      0.040                           1214400300291 
1052.       3.         0.118      0.040                           1214400300292 
1052.       4.         0.020      0.045                           1214400300293 
1052.       5.        -0.002      0.025                           1214400300294 
1067.       1.         0.616      0.035                           1214400300295 
1067.       2.         0.845      0.048                           1214400300296 
1067.       3.         0.144      0.050                           1214400300297 
1067.       4.         0.016      0.057                           1214400300298 
1067.       5.         0.003      0.018                           1214400300299 
1071.       1.         0.629      0.035                           1214400300300 
1071.       2.         0.827      0.049                           1214400300301 
1071.       3.         0.155      0.045                           1214400300302 
1071.       4.        -0.001      0.054                           1214400300303 
1071.       5.         0.001      0.003                           1214400300304 
1087.       1.         0.819      0.039                           1214400300305 
1087.       2.         0.935      0.055                           1214400300306 
1087.       3.         0.197      0.050                           1214400300307 
1087.       4.        -0.030      0.064                           1214400300308 
1087.       5.         0.001      0.003                           1214400300309 
1112.       1.         0.948      0.037                           1214400300310 
1112.       2.         1.127      0.050                           1214400300311 
1112.       3.         0.370      0.055                           1214400300312 
1112.       4.         0.020      0.067                           1214400300313 
1112.       5.        -0.002      0.009                           1214400300314 
1123.       1.         0.931      0.032                           1214400300315 
1123.       2.         1.181      0.044                           1214400300316 
1123.       3.         0.433      0.057                           1214400300317 
1123.       4.         0.016      0.071                           1214400300318 
1123.       5.        -0.003      0.007                           1214400300319 
1132.       1.         0.985      0.031                           1214400300320 
1132.       2.         1.219      0.042                           1214400300321 
1132.       3.         0.426      0.055                           1214400300322 
1132.       4.         0.024      0.070                           1214400300323 
1132.       5.        -0.003      0.007                           1214400300324 
1135.       1.         0.931      0.030                           1214400300325 
1135.       2.         1.208      0.041                           1214400300326 
1135.       3.         0.437      0.054                           1214400300327 
1135.       4.         0.041      0.067                           1214400300328 
1135.       5.        -0.004      0.008                           1214400300329 
1137.       1.         0.942      0.028                           1214400300330 
1137.       2.         1.166      0.039                           1214400300331 
1137.       3.         0.410      0.053                           1214400300332 
1137.       4.         0.017      0.066                           1214400300333 
1137.       5.        -0.005      0.010                           1214400300334 
1140.       1.         0.967      0.025                           1214400300335 
1140.       2.         1.127      0.036                           1214400300336 
1140.       3.         0.393      0.046                           1214400300337 
1140.       4.        -0.004      0.060                           1214400300338 
1140.       5.        -0.006      0.012                           1214400300339 
1145.       1.         0.866      0.021                           1214400300340 
1145.       2.         1.139      0.030                           1214400300341 
1145.       3.         0.432      0.040                           1214400300342 
1145.       4.         0.021      0.051                           1214400300343 
1145.       5.        -0.008      0.016                           1214400300344 
1178.       1.         0.807      0.027                           1214400300345 
1178.       2.         1.189      0.040                           1214400300346 
1178.       3.         0.459      0.049                           1214400300347 
1178.       4.         0.074      0.063                           1214400300348 
1178.       5.         0.000      0.000                           1214400300349 
1193.       1.         0.828      0.032                           1214400300350 
1193.       2.         1.207      0.048                           1214400300351 
1193.       3.         0.375      0.059                           1214400300352 
1193.       4.         0.102      0.076                           1214400300353 
1193.       5.         0.000      0.000                           1214400300354 
1226.       1.         0.554      0.038                           1214400300355 
1226.       2.         1.215      0.055                           1214400300356 
1226.       3.         0.411      0.072                           1214400300357 
1226.       4.         0.195      0.088                           1214400300358 
1226.       5.        -0.015      0.023                           1214400300359 
1230.       1.         0.503      0.039                           1214400300360 
1230.       2.         1.211      0.055                           1214400300361 
1230.       3.         0.404      0.073                           1214400300362 
1230.       4.         0.206      0.088                           1214400300363 
1230.       5.        -0.017      0.027                           1214400300364 
1235.       1.         0.445      0.041                           1214400300365 
1235.       2.         1.212      0.058                           1214400300366 
1235.       3.         0.371      0.078                           1214400300367 
1235.       4.         0.218      0.094                           1214400300368 
1235.       5.        -0.020      0.031                           1214400300369 
1248.       1.         0.460      0.039                           1214400300370 
1248.       2.         1.285      0.055                           1214400300371 
1248.       3.         0.477      0.074                           1214400300372 
1248.       4.         0.243      0.090                           1214400300373 
1248.       5.        -0.019      0.035                           1214400300374 
1257.       1.         0.441      0.042                           1214400300375 
1257.       2.         1.253      0.060                           1214400300376 
1257.       3.         0.457      0.079                           1214400300377 
1257.       4.         0.196      0.098                           1214400300378 
1257.       5.        -0.023      0.029                           1214400300379 
1260.       1.         0.436      0.033                           1214400300380 
1260.       2.         1.281      0.046                           1214400300381 
1260.       3.         0.502      0.064                           1214400300382 
1260.       4.         0.218      0.075                           1214400300383 
1260.       5.        -0.027      0.034                           1214400300384 
1275.       1.         0.509      0.035                           1214400300385 
1275.       2.         1.320      0.051                           1214400300386 
1275.       3.         0.443      0.067                           1214400300387 
1275.       4.         0.160      0.080                           1214400300388 
1275.       5.        -0.023      0.029                           1214400300389 
1279.       1.         0.561      0.040                           1214400300390 
1279.       2.         1.344      0.058                           1214400300391 
1279.       3.         0.436      0.076                           1214400300392 
1279.       4.         0.138      0.091                           1214400300393 
1279.       5.        -0.027      0.034                           1214400300394 
1289.       1.         0.562      0.035                           1214400300395 
1289.       2.         1.375      0.051                           1214400300396 
1289.       3.         0.339      0.063                           1214400300397 
1289.       4.         0.082      0.082                           1214400300398 
1289.       5.        -0.002      0.009                           1214400300399 
1299.       1.         0.584      0.030                           1214400300400 
1299.       2.         1.395      0.043                           1214400300401 
1299.       3.         0.264      0.055                           1214400300402 
1299.       4.         0.067      0.069                           1214400300403 
1299.       5.        -0.006      0.016                           1214400300404 
1310.       1.         0.608      0.031                           1214400300405 
1310.       2.         1.400      0.046                           1214400300406 
1310.       3.         0.215      0.056                           1214400300407 
1310.       4.         0.085      0.073                           1214400300408 
1310.       5.        -0.004      0.007                           1214400300409 
1324.       1.         0.695      0.034                           1214400300410 
1324.       2.         1.387      0.048                           1214400300411 
1324.       3.         0.284      0.063                           1214400300412 
1324.       4.         0.137      0.075                           1214400300413 
1324.       5.         0.004      0.021                           1214400300414 
1329.       1.         0.748      0.030                           1214400300415 
1329.       2.         1.414      0.042                           1214400300416 
1329.       3.         0.310      0.058                           1214400300417 
1329.       4.         0.182      0.066                           1214400300418 
1339.       5.         0.004      0.024                           1214400300419 
1349.       1.         0.854      0.029                           1214400300420 
1349.       2.         1.380      0.042                           1214400300421 
1349.       3.         0.321      0.058                           1214400300422 
1349.       4.         0.197      0.064                           1214400300423 
1349.       5.         0.007      0.029                           1214400300424 
1360.       1.         0.906      0.027                           1214400300425 
1360.       2.         1.373      0.040                           1214400300426 
1360.       3.         0.329      0.055                           1214400300427 
1360.       4.         0.188      0.061                           1214400300428 
1360.       5.         0.012      0.021                           1214400300429 
1378.       1.         0.892      0.033                           1214400300430 
1378.       2.         1.416      0.048                           1214400300431 
1378.       3.         0.384      0.065                           1214400300432 
1378.       4.         0.252      0.074                           1214400300433 
1378.       5.         0.016      0.027                           1214400300434 
1382.       1.         0.926      0.031                           1214400300435 
1382.       2.         1.414      0.047                           1214400300436 
1382.       3.         0.388      0.061                           1214400300437 
1382.       4.         0.273      0.071                           1214400300438 
1382.       5.         0.011      0.016                           1214400300439 
1390.       1.         0.908      0.028                           1214400300440 
1390.       2.         1.475      0.043                           1214400300441 
1390.       3.         0.373      0.055                           1214400300442 
1390.       4.         0.236      0.067                           1214400300443 
1390.       5.         0.011      0.016                           1214400300444 
1399.       1.         0.905      0.029                           1214400300445 
1399.       2.         1.514      0.043                           1214400300446 
1399.       3.         0.380      0.059                           1214400300447 
1399.       4.         0.267      0.068                           1214400300448 
1399.       5.         0.000      0.037                           1214400300449 
1408.       1.         0.801      0.034                           1214400300450 
1408.       2.         1.574      0.049                           1214400300451 
1408.       3.         0.380      0.065                           1214400300452 
1408.       4.         0.292      0.080                           1214400300453 
1408.       5.        -0.001      0.033                           1214400300454 
1421.       1.         0.680      0.042                           1214400300455 
1421.       2.         1.538      0.061                           1214400300456 
1421.       3.         0.399      0.081                           1214400300457 
1421.       4.         0.344      0.107                           1214400300458 
1421.       5.         0.012      0.058                           1214400300459 
1424.       1.         0.719      0.041                           1214400300460 
1424.       2.         1.537      0.059                           1214400300461 
1424.       3.         0.398      0.078                           1214400300462 
1424.       4.         0.333      0.104                           1214400300463 
1424.       5.         0.013      0.067                           1214400300464 
1429.       1.         0.675      0.044                           1214400300465 
1429.       2.         1.536      0.063                           1214400300466 
1429.       3.         0.413      0.085                           1214400300467 
1429.       4.         0.349      0.113                           1214400300468 
1429.       5.         0.006      0.063                           1214400300469 
1439.       1.         0.604      0.050                           1214400300470 
1439.       2.         1.571      0.052                           1214400300471 
1439.       3.         0.374      0.094                           1214400300472 
1439.       4.         0.318      0.130                           1214400300473 
1439.       5.         0.006      0.063                           1214400300474 
1449.       1.         0.556      0.050                           1214400300475 
1449.       2.         1.546      0.052                           1214400300476 
1449.       3.         0.365      0.096                           1214400300477 
1449.       4.         0.320      0.130                           1214400300478 
1449.       5.         0.007      0.074                           1214400300479 
1460.       1.         0.611      0.045                           1214400300480 
1460.       2.         1.527      0.047                           1214400300481 
1460.       3.         0.374      0.085                           1214400300482 
1460.       4.         0.247      0.119                           1214400300483 
1460.       5.         0.019      0.050                           1214400300484 
ENDDATA            472          0                                 1214400300485 
ENDSUBENT          484          0                                 1214400399999 
SUBENT        12144004   19860407                             00001214400400001 
BIB                  5          7                                 1214400400002 
REACTION   (26-FE-0(N,INL)26-FE-56,PAR,SIG)                       1214400400003 
ANALYSIS   FROM LEGENDRE POLYNOMIAL FIT TO DATA.                  1214400400004 
FLAG       (1.) FIRST MEASUREMENT AT ENERGY GIVEN.                1214400400005 
           (2.) SECOND MEASUREMENT AT ENERGY GIVEN.               1214400400006 
           (3.) THIRD MEASUREMENT AT ENERGY GIVEN.                1214400400007 
STATUS     (COREL,12144005) TAKEN FROM PRIVATE COMM, SMITH 68/4   1214400400008 
HISTORY    (860407A) REACTION PRODUCT ADDED.                      1214400400009 
ENDBIB               7          0                                 1214400400010 
COMMON               2          3                                 1214400400011 
EN-RSL     E-LVL                                                  1214400400012 
KEV        MEV                                                    1214400400013 
 50.        0.845                                                 1214400400014 
ENDCOMMON            3          0                                 1214400400015 
DATA                 3         26                                 1214400400016 
EN         DATA       FLAG                                        1214400400017 
MEV        B          NO-DIM                                      1214400400018 
 1.125      0.313                                                 1214400400019 
 1.149      0.882                                                 1214400400020 
 1.174      0.432                                                 1214400400021 
 1.199      0.841                                                 1214400400022 
 1.209      0.425                                                 1214400400023 
 1.224      0.401                                                 1214400400024 
 1.250      0.433      1.                                         1214400400025 
 1.250      0.652      2.                                         1214400400026 
 1.250      0.390      3.                                         1214400400027 
 1.269      0.390                                                 1214400400028 
 1.299      0.380      1.                                         1214400400029 
 1.299      0.451      2.                                         1214400400030 
 1.319      0.591                                                 1214400400031 
 1.324      0.376                                                 1214400400032 
 1.359      0.534                                                 1214400400033 
 1.375      0.458                                                 1214400400034 
 1.379      0.477                                                 1214400400035 
 1.399      0.804      1.                                         1214400400036 
 1.399      0.532      2.                                         1214400400037 
 1.399      0.576      3.                                         1214400400038 
 1.419      0.457                                                 1214400400039 
 1.424      0.569                                                 1214400400040 
 1.449      0.532      1.                                         1214400400041 
 1.449      0.630      2.                                         1214400400042 
 1.474      0.553                                                 1214400400043 
 1.500      0.494                                                 1214400400044 
ENDDATA             28          0                                 1214400400045 
ENDSUBENT           44          0                                 1214400499999 
SUBENT        12144005   19860407                             00001214400500001 
BIB                  4          6                                 1214400500002 
REACTION   (26-FE-0(N,INL)26-FE-56,PAR,DA,,LEG)                   1214400500003 
FLAG       (1.) FIRST MEASUREMENT AT ENERGY GIVEN.                1214400500004 
           (2.) SECOND MEASUREMENT AT ENERGY GIVEN.               1214400500005 
           (3.) THIRD MEASUREMENT AT ENERGY GIVEN.                1214400500006 
STATUS     (COREL,12144004) TAKEN FROM PRIVATE COMM, SMITH,68/4   1214400500007 
HISTORY    (860407A) REACTION PRODUCT ADDED.                      1214400500008 
ENDBIB               6          0                                 1214400500009 
COMMON               2          3                                 1214400500010 
EN-RSL     E-LVL                                                  1214400500011 
KEV        MEV                                                    1214400500012 
 50.        0.845                                                 1214400500013 
ENDCOMMON            3          0                                 1214400500014 
DATA                 4         52                                 1214400500015 
EN         NUMBER     DATA       FLAG                             1214400500016 
MEV        NO-DIM     NO-DIM     NO-DIM                           1214400500017 
 1.125      1.         0.339                                      1214400500018 
 1.125      2.         0.120                                      1214400500019 
 1.149      1.         0.065                                      1214400500020 
 1.149      2.         0.037                                      1214400500021 
 1.174      1.         0.022                                      1214400500022 
 1.174      2.        -0.224                                      1214400500023 
 1.199      1.         0.036                                      1214400500024 
 1.199      2.        -0.279                                      1214400500025 
 1.209      1.        -0.028                                      1214400500026 
 1.209      2.         0.055                                      1214400500027 
 1.224      1.         0.061                                      1214400500028 
 1.224      2.        -0.224                                      1214400500029 
 1.250      1.        -0.022      1.                              1214400500030 
 1.250      1.        -0.002      2.                              1214400500031 
 1.250      1.         0.198      3.                              1214400500032 
 1.250      2.         0.047      1.                              1214400500033 
 1.250      2.        -0.253      2.                              1214400500034 
 1.250      2.        -0.047      3.                              1214400500035 
 1.269      1.         0.018                                      1214400500036 
 1.269      2.         0.034                                      1214400500037 
 1.299      1.         0.012      1.                              1214400500038 
 1.299      1.        -0.001      2.                              1214400500039 
 1.299      2.        -0.159      1.                              1214400500040 
 1.299      2.         0.013      2.                              1214400500041 
 1.319      1.         0.079                                      1214400500042 
 1.319      2.        -0.186                                      1214400500043 
 1.324      1.         0.138                                      1214400500044 
 1.324      2.         0.166                                      1214400500045 
 1.359      1.        -0.009                                      1214400500046 
 1.359      2.        -0.323                                      1214400500047 
 1.375      1.         0.098                                      1214400500048 
 1.375      2.        -0.234                                      1214400500049 
 1.379      1.         0.129                                      1214400500050 
 1.379      2.         0.076                                      1214400500051 
 1.399      1.         0.038      1.                              1214400500052 
 1.399      1.         0.204      2.                              1214400500053 
 1.399      1.         0.236      3.                              1214400500054 
 1.399      2.        -0.111      1.                              1214400500055 
 1.399      2.        -0.069      2.                              1214400500056 
 1.399      2.         0.186      3.                              1214400500057 
 1.419      1.        -0.057                                      1214400500058 
 1.419      2.        -0.144                                      1214400500059 
 1.424      1.         0.101                                      1214400500060 
 1.424      2.        -0.037                                      1214400500061 
 1.449      1.        -0.002      1.                              1214400500062 
 1.449      1.         0.303      2.                              1214400500063 
 1.449      2.         0.049      1.                              1214400500064 
 1.449      2.         0.159      2.                              1214400500065 
 1.474      1.         0.199                                      1214400500066 
 1.474      2.         0.298                                      1214400500067 
 1.500      1.         0.366                                      1214400500068 
 1.500      2.         0.307                                      1214400500069 
ENDDATA             54          0                                 1214400500070 
ENDSUBENT           69          0                                 1214400599999 
SUBENT        12144006   19830812                             00001214400600001 
BIB                  3          7                                 1214400600002 
REACTION   (26-FE-0(N,TOT),,SIG)                                  1214400600003 
ERR-ANALYS ENERGY ERROR ESTIMATED TO BE LESS THAN 5 KEV ESTIMATED 1214400600004 
            CROSS SECTION UNCERTAINTY IS 5 PERCENT OR LESS AT     1214400600005 
            MOST ENERGIES. POSSIBLY LARGER UNCERTAINTY AT HIGH    1214400600006 
            ENERGY. ENERGY SCALE IS CALIBRATED AGAINST LI(P,N)    1214400600007 
            THRESHOLD AT 1.882 MEV.                               1214400600008 
STATUS      TAKEN FROM PRIVATE COMM, SMITH 68/3                   1214400600009 
ENDBIB               7          0                                 1214400600010 
NOCOMMON             0          0                                 1214400600011 
DATA                 2       1472                                 1214400600012 
EN         DATA                                                   1214400600013 
MEV        B                                                      1214400600014 
 0.332603   1.45                                                  1214400600015 
 0.333171   0.85                                                  1214400600016 
 0.333729   1.00                                                  1214400600017 
 0.334297   1.05                                                  1214400600018 
 0.334855   1.20                                                  1214400600019 
 0.335423   0.75                                                  1214400600020 
 0.335992   1.50                                                  1214400600021 
 0.336550   2.20                                                  1214400600022 
 0.337118   1.90                                                  1214400600023 
 0.337686   1.40                                                  1214400600024 
 0.338244   0.55                                                  1214400600025 
 0.338812   0.60                                                  1214400600026 
 0.339370   0.85                                                  1214400600027 
 0.339938   0.80                                                  1214400600028 
 0.340504   0.95                                                  1214400600029 
 0.341064   0.70                                                  1214400600030 
 0.341632   0.75                                                  1214400600031 
 0.342191   1.25                                                  1214400600032 
 0.342759   1.05                                                  1214400600033 
 0.343317   0.90                                                  1214400600034 
 0.343885   0.62                                                  1214400600035 
 0.344453   0.50                                                  1214400600036 
 0.345011   0.70                                                  1214400600037 
 0.345579   0.65                                                  1214400600038 
 0.346137   1.00                                                  1214400600039 
 0.346705   1.05                                                  1214400600040 
 0.347273   1.85                                                  1214400600041 
 0.347831   2.05                                                  1214400600042 
 0.348399   2.50                                                  1214400600043 
 0.348957   2.10                                                  1214400600044 
 0.349525   1.10                                                  1214400600045 
 0.350093   1.05                                                  1214400600046 
 0.350651   0.80                                                  1214400600047 
 0.351219   0.70                                                  1214400600048 
 0.351787   0.50                                                  1214400600049 
 0.352345   0.60                                                  1214400600050 
 0.352913   0.50                                                  1214400600051 
 0.353471   0.40                                                  1214400600052 
 0.354039   0.70                                                  1214400600053 
 0.354597   0.95                                                  1214400600054 
 0.355165   1.10                                                  1214400600055 
 0.355733   0.90                                                  1214400600056 
 0.356291   1.20                                                  1214400600057 
 0.356859   1.40                                                  1214400600058 
 0.357427   1.50                                                  1214400600059 
 0.357985   2.30                                                  1214400600060 
 0.358553   2.70                                                  1214400600061 
 0.359111   3.30                                                  1214400600062 
 0.359679   3.35                                                  1214400600063 
 0.360237   2.80                                                  1214400600064 
 0.360247   1.80                                                  1214400600065 
 0.360745   1.95                                                  1214400600066 
 0.360805   1.85                                                  1214400600067 
 0.361243   2.45                                                  1214400600068 
 0.361741   3.10                                                  1214400600069 
 0.362239   3.35                                                  1214400600070 
 0.362737   3.75                                                  1214400600071 
 0.363236   4.30                                                  1214400600072 
 0.363734   5.60                                                  1214400600073 
 0.364232   6.15                                                  1214400600074 
 0.364730   6.45                                                  1214400600075 
 0.365228   6.55                                                  1214400600076 
 0.365726   6.80                                                  1214400600077 
 0.366225   6.65                                                  1214400600078 
 0.366723   6.90                                                  1214400600079 
 0.367221   6.30                                                  1214400600080 
 0.367719   5.90                                                  1214400600081 
 0.368217   6.00                                                  1214400600082 
 0.368715   5.35                                                  1214400600083 
 0.369213   5.25                                                  1214400600084 
 0.369711   4.90                                                  1214400600085 
 0.370210   4.30                                                  1214400600086 
 0.370708   4.35                                                  1214400600087 
 0.371206   3.75                                                  1214400600088 
 0.371704   3.15                                                  1214400600089 
 0.372202   2.75                                                  1214400600090 
 0.372700   2.95                                                  1214400600091 
 0.373198   2.35                                                  1214400600092 
 0.373696   2.25                                                  1214400600093 
 0.374194   2.00                                                  1214400600094 
 0.374692   1.85                                                  1214400600095 
 0.375190   1.40                                                  1214400600096 
 0.375689   1.45                                                  1214400600097 
 0.376187   1.70                                                  1214400600098 
 0.376685   1.25                                                  1214400600099 
 0.377183   1.45                                                  1214400600100 
 0.377681   0.70                                                  1214400600101 
 0.378179   0.85                                                  1214400600102 
 0.378414   0.80                                                  1214400600103 
 0.378677   0.70                                                  1214400600104 
 0.379000   0.40                                                  1214400600105 
 0.379175   0.80                                                  1214400600106 
 0.379585   0.67                                                  1214400600107 
 0.380171   0.92                                                  1214400600108 
 0.380757   1.34                                                  1214400600109 
 0.381342   1.65                                                  1214400600110 
 0.381928   2.35                                                  1214400600111 
 0.382514   2.61                                                  1214400600112 
 0.383100   2.66                                                  1214400600113 
 0.383685   3.15                                                  1214400600114 
 0.384271   3.43                                                  1214400600115 
 0.384857   4.32                                                  1214400600116 
 0.385442   4.65                                                  1214400600117 
 0.386028   5.07                                                  1214400600118 
 0.386614   5.52                                                  1214400600119 
 0.387199   5.19                                                  1214400600120 
 0.387785   5.83                                                  1214400600121 
 0.388370   5.87                                                  1214400600122 
 0.388956   6.35                                                  1214400600123 
 0.389542   6.61                                                  1214400600124 
 0.390530   6.78                                                  1214400600125 
 0.390928   7.00                                                  1214400600126 
 0.391326   7.27                                                  1214400600127 
 0.391725   6.96                                                  1214400600128 
 0.392123   6.82                                                  1214400600129 
 0.392522   6.60                                                  1214400600130 
 0.392920   6.67                                                  1214400600131 
 0.393318   6.67                                                  1214400600132 
 0.393717   6.82                                                  1214400600133 
 0.394115   6.63                                                  1214400600134 
 0.394513   6.38                                                  1214400600135 
 0.394912   6.28                                                  1214400600136 
 0.395310   6.17                                                  1214400600137 
 0.395708   6.15                                                  1214400600138 
 0.396107   6.08                                                  1214400600139 
 0.396505   5.80                                                  1214400600140 
 0.396904   5.65                                                  1214400600141 
 0.397302   5.58                                                  1214400600142 
 0.397700   5.21                                                  1214400600143 
 0.398099   5.06                                                  1214400600144 
 0.398497   5.21                                                  1214400600145 
 0.398895   5.24                                                  1214400600146 
 0.399294   5.02                                                  1214400600147 
 0.399692   4.50                                                  1214400600148 
 0.400090   4.32                                                  1214400600149 
 0.400564   4.62                                                  1214400600150 
 0.401038   4.52                                                  1214400600151 
 0.401512   4.22                                                  1214400600152 
 0.401986   3.80                                                  1214400600153 
 0.402460   3.91                                                  1214400600154 
 0.402934   4.41                                                  1214400600155 
 0.403408   4.79                                                  1214400600156 
 0.403882   5.53                                                  1214400600157 
 0.404356   5.87                                                  1214400600158 
 0.404830   6.16                                                  1214400600159 
 0.405304   5.48                                                  1214400600160 
 0.405778   4.23                                                  1214400600161 
 0.406252   2.97                                                  1214400600162 
 0.406726   2.86                                                  1214400600163 
 0.407200   2.76                                                  1214400600164 
 0.407674   4.10                                                  1214400600165 
 0.408148   5.12                                                  1214400600166 
 0.408622   5.82                                                  1214400600167 
 0.409096   6.15                                                  1214400600168 
 0.409570   6.22                                                  1214400600169 
 0.410044   5.93                                                  1214400600170 
 0.410546   6.30                                                  1214400600171 
 0.411043   5.35                                                  1214400600172 
 0.411541   5.85                                                  1214400600173 
 0.412039   5.54                                                  1214400600174 
 0.412537   5.35                                                  1214400600175 
 0.413035   5.40                                                  1214400600176 
 0.413533   5.18                                                  1214400600177 
 0.414030   5.24                                                  1214400600178 
 0.414528   5.27                                                  1214400600179 
 0.415026   4.75                                                  1214400600180 
 0.415524   5.17                                                  1214400600181 
 0.416022   4.55                                                  1214400600182 
 0.416520   4.70                                                  1214400600183 
 0.417017   4.50                                                  1214400600184 
 0.417515   4.70                                                  1214400600185 
 0.418013   5.18                                                  1214400600186 
 0.418511   5.35                                                  1214400600187 
 0.419009   6.07                                                  1214400600188 
 0.419506   6.84                                                  1214400600189 
 0.420004   8.03                                                  1214400600190 
 0.420502   8.08                                                  1214400600191 
 0.421000   7.17                                                  1214400600192 
 0.421497   6.28                                                  1214400600193 
 0.421995   5.28                                                  1214400600194 
 0.422493   4.95                                                  1214400600195 
 0.422991   4.29                                                  1214400600196 
 0.423488   4.06                                                  1214400600197 
 0.423986   4.31                                                  1214400600198 
 0.424484   4.06                                                  1214400600199 
 0.424982   4.15                                                  1214400600200 
 0.425479   3.94                                                  1214400600201 
 0.425977   3.87                                                  1214400600202 
 0.426475   4.18                                                  1214400600203 
 0.426973   4.02                                                  1214400600204 
 0.427470   3.95                                                  1214400600205 
 0.427968   3.70                                                  1214400600206 
 0.428466   3.92                                                  1214400600207 
 0.428964   3.88                                                  1214400600208 
 0.429461   3.43                                                  1214400600209 
 0.429959   3.25                                                  1214400600210 
 0.429979   2.77                                                  1214400600211 
 0.430433   3.00                                                  1214400600212 
 0.430642   2.73                                                  1214400600213 
 0.430907   3.16                                                  1214400600214 
 0.431305   2.49                                                  1214400600215 
 0.431380   2.93                                                  1214400600216 
 0.431854   3.15                                                  1214400600217 
 0.431968   2.97                                                  1214400600218 
 0.432328   2.73                                                  1214400600219 
 0.432631   2.56                                                  1214400600220 
 0.432802   2.71                                                  1214400600221 
 0.433276   2.70                                                  1214400600222 
 0.433294   1.82                                                  1214400600223 
 0.433750   2.46                                                  1214400600224 
 0.433957   1.45                                                  1214400600225 
 0.434223   2.94                                                  1214400600226 
 0.434619   1.43                                                  1214400600227 
 0.434697   2.53                                                  1214400600228 
 0.435171   1.80                                                  1214400600229 
 0.435282   1.97                                                  1214400600230 
 0.435645   1.44                                                  1214400600231 
 0.435945   2.82                                                  1214400600232 
 0.436118   1.45                                                  1214400600233 
 0.436592   1.93                                                  1214400600234 
 0.436608   3.87                                                  1214400600235 
 0.437066   2.80                                                  1214400600236 
 0.437271   5.53                                                  1214400600237 
 0.437540   3.86                                                  1214400600238 
 0.437934   5.58                                                  1214400600239 
 0.438014   5.27                                                  1214400600240 
 0.438487   5.55                                                  1214400600241 
 0.438597   5.35                                                  1214400600242 
 0.438961   5.33                                                  1214400600243 
 0.439260   5.01                                                  1214400600244 
 0.439435   4.95                                                  1214400600245 
 0.439909   4.79                                                  1214400600246 
 0.439923   4.80                                                  1214400600247 
 0.440382   4.56                                                  1214400600248 
 0.440585   4.59                                                  1214400600249 
 0.440856   4.55                                                  1214400600250 
 0.441248   4.57                                                  1214400600251 
 0.441330   4.45                                                  1214400600252 
 0.441804   4.32                                                  1214400600253 
 0.441911   4.49                                                  1214400600254 
 0.442277   4.07                                                  1214400600255 
 0.442574   4.32                                                  1214400600256 
 0.442751   4.00                                                  1214400600257 
 0.443225   4.20                                                  1214400600258 
 0.443237   4.08                                                  1214400600259 
 0.443699   4.16                                                  1214400600260 
 0.443900   3.97                                                  1214400600261 
 0.444172   4.37                                                  1214400600262 
 0.444563   4.23                                                  1214400600263 
 0.444646   4.82                                                  1214400600264 
 0.445120   5.45                                                  1214400600265 
 0.445225   4.18                                                  1214400600266 
 0.445594   5.62                                                  1214400600267 
 0.445888   3.93                                                  1214400600268 
 0.446551   4.25                                                  1214400600269 
 0.447214   4.99                                                  1214400600270 
 0.447877   6.08                                                  1214400600271 
 0.448539   5.59                                                  1214400600272 
 0.449202   4.68                                                  1214400600273 
 0.449865   4.20                                                  1214400600274 
 0.450528   4.22                                                  1214400600275 
 0.451191   4.19                                                  1214400600276 
 0.451853   3.68                                                  1214400600277 
 0.452516   3.52                                                  1214400600278 
 0.453177   3.66                                                  1214400600279 
 0.453179   3.32                                                  1214400600280 
 0.453842   3.31                                                  1214400600281 
 0.454504   3.28                                                  1214400600282 
 0.455830   3.99                                                  1214400600283 
 0.456492   4.05                                                  1214400600284 
 0.457155   3.89                                                  1214400600285 
 0.457818   3.50                                                  1214400600286 
 0.458481   3.19                                                  1214400600287 
 0.459143   2.94                                                  1214400600288 
 0.459806   2.92                                                  1214400600289 
 0.460469   3.08                                                  1214400600290 
 0.461131   3.00                                                  1214400600291 
 0.461794   2.87                                                  1214400600292 
 0.462457   2.68                                                  1214400600293 
 0.463119   2.75                                                  1214400600294 
 0.463782   2.45                                                  1214400600295 
 0.464445   2.00                                                  1214400600296 
 0.465107   1.75                                                  1214400600297 
 0.465770   1.53                                                  1214400600298 
 0.466433   1.30                                                  1214400600299 
 0.467095   1.16                                                  1214400600300 
 0.467758   1.11                                                  1214400600301 
 0.470407   1.50                                                  1214400600302 
 0.471049   2.33                                                  1214400600303 
 0.471691   3.82                                                  1214400600304 
 0.472332   5.07                                                  1214400600305 
 0.472974   5.41                                                  1214400600306 
 0.473616   5.24                                                  1214400600307 
 0.474257   5.03                                                  1214400600308 
 0.474899   4.69                                                  1214400600309 
 0.475541   4.41                                                  1214400600310 
 0.476182   4.25                                                  1214400600311 
 0.476824   3.84                                                  1214400600312 
 0.477466   3.69                                                  1214400600313 
 0.478107   3.66                                                  1214400600314 
 0.478749   3.62                                                  1214400600315 
 0.479391   3.55                                                  1214400600316 
 0.480032   3.65                                                  1214400600317 
 0.480674   3.74                                                  1214400600318 
 0.481316   3.56                                                  1214400600319 
 0.481957   3.90                                                  1214400600320 
 0.482599   4.14                                                  1214400600321 
 0.483240   3.93                                                  1214400600322 
 0.483882   3.33                                                  1214400600323 
 0.484524   3.12                                                  1214400600324 
 0.485165   3.17                                                  1214400600325 
 0.485807   3.27                                                  1214400600326 
 0.486448   3.20                                                  1214400600327 
 0.487090   3.04                                                  1214400600328 
 0.487731   3.20                                                  1214400600329 
 0.488373   3.15                                                  1214400600330 
 0.489015   3.33                                                  1214400600331 
 0.489656   3.96                                                  1214400600332 
 0.490323   4.90                                                  1214400600333 
 0.490986   6.05                                                  1214400600334 
 0.491648   5.20                                                  1214400600335 
 0.492311   3.95                                                  1214400600336 
 0.492973   3.28                                                  1214400600337 
 0.493635   2.68                                                  1214400600338 
 0.494298   2.93                                                  1214400600339 
 0.494960   2.71                                                  1214400600340 
 0.495623   2.30                                                  1214400600341 
 0.496285   1.98                                                  1214400600342 
 0.496947   1.73                                                  1214400600343 
 0.497610   1.55                                                  1214400600344 
 0.498272   1.67                                                  1214400600345 
 0.498934   1.85                                                  1214400600346 
 0.499597   2.28                                                  1214400600347 
 0.500259   3.13                                                  1214400600348 
 0.500921   4.00                                                  1214400600349 
 0.501584   4.75                                                  1214400600350 
 0.502246   4.94                                                  1214400600351 
 0.502908   4.70                                                  1214400600352 
 0.503571   4.65                                                  1214400600353 
 0.504233   3.94                                                  1214400600354 
 0.504895   3.50                                                  1214400600355 
 0.505558   3.37                                                  1214400600356 
 0.506220   2.96                                                  1214400600357 
 0.506882   2.82                                                  1214400600358 
 0.507544   2.88                                                  1214400600359 
 0.508207   2.77                                                  1214400600360 
 0.508869   2.94                                                  1214400600361 
 0.509531   3.52                                                  1214400600362 
 0.510261   4.50                                                  1214400600363 
 0.510971   5.32                                                  1214400600364 
 0.511681   5.66                                                  1214400600365 
 0.512391   4.70                                                  1214400600366 
 0.513101   4.15                                                  1214400600367 
 0.513811   3.31                                                  1214400600368 
 0.514521   3.12                                                  1214400600369 
 0.515231   3.01                                                  1214400600370 
 0.515941   2.92                                                  1214400600371 
 0.516651   2.69                                                  1214400600372 
 0.517361   2.74                                                  1214400600373 
 0.518070   2.68                                                  1214400600374 
 0.518780   2.67                                                  1214400600375 
 0.519490   2.71                                                  1214400600376 
 0.520200   2.77                                                  1214400600377 
 0.520910   2.49                                                  1214400600378 
 0.521620   2.58                                                  1214400600379 
 0.522320   2.65                                                  1214400600380 
 0.523040   2.54                                                  1214400600381 
 0.523749   2.64                                                  1214400600382 
 0.524459   2.53                                                  1214400600383 
 0.525169   2.75                                                  1214400600384 
 0.525879   2.94                                                  1214400600385 
 0.526616   2.10                                                  1214400600386 
 0.526990   2.25                                                  1214400600387 
 0.527365   2.45                                                  1214400600388 
 0.527740   2.30                                                  1214400600389 
 0.528115   2.45                                                  1214400600390 
 0.528490   2.31                                                  1214400600391 
 0.528864   2.25                                                  1214400600392 
 0.529239   2.15                                                  1214400600393 
 0.529614   2.05                                                  1214400600394 
 0.529989   1.91                                                  1214400600395 
 0.530363   1.75                                                  1214400600396 
 0.530738   1.87                                                  1214400600397 
 0.531113   2.02                                                  1214400600398 
 0.531488   2.17                                                  1214400600399 
 0.531863   2.37                                                  1214400600400 
 0.532237   2.40                                                  1214400600401 
 0.532612   2.37                                                  1214400600402 
 0.532987   2.15                                                  1214400600403 
 0.533362   1.82                                                  1214400600404 
 0.533736   1.92                                                  1214400600405 
 0.534111   1.95                                                  1214400600406 
 0.534486   1.77                                                  1214400600407 
 0.534861   1.90                                                  1214400600408 
 0.535235   1.71                                                  1214400600409 
 0.535610   1.70                                                  1214400600410 
 0.535985   1.75                                                  1214400600411 
 0.536360   2.00                                                  1214400600412 
 0.536734   2.20                                                  1214400600413 
 0.537109   2.41                                                  1214400600414 
 0.537484   3.00                                                  1214400600415 
 0.537859   3.30                                                  1214400600416 
 0.538233   3.20                                                  1214400600417 
 0.538608   3.45                                                  1214400600418 
 0.538983   3.71                                                  1214400600419 
 0.539358   4.05                                                  1214400600420 
 0.539732   4.31                                                  1214400600421 
 0.540060   4.26                                                  1214400600422 
 0.540402   3.70                                                  1214400600423 
 0.540744   3.45                                                  1214400600424 
 0.541086   3.00                                                  1214400600425 
 0.541428   2.63                                                  1214400600426 
 0.541770   2.30                                                  1214400600427 
 0.542112   2.05                                                  1214400600428 
 0.542454   1.80                                                  1214400600429 
 0.542796   1.91                                                  1214400600430 
 0.543138   2.10                                                  1214400600431 
 0.543479   2.22                                                  1214400600432 
 0.543821   2.41                                                  1214400600433 
 0.544163   2.66                                                  1214400600434 
 0.544505   2.62                                                  1214400600435 
 0.544847   3.02                                                  1214400600436 
 0.545189   3.45                                                  1214400600437 
 0.545531   3.91                                                  1214400600438 
 0.545873   4.32                                                  1214400600439 
 0.546215   4.71                                                  1214400600440 
 0.546557   4.82                                                  1214400600441 
 0.546898   4.21                                                  1214400600442 
 0.547240   3.61                                                  1214400600443 
 0.547582   3.37                                                  1214400600444 
 0.547924   2.70                                                  1214400600445 
 0.548266   2.58                                                  1214400600446 
 0.548608   2.39                                                  1214400600447 
 0.548950   2.22                                                  1214400600448 
 0.549292   2.33                                                  1214400600449 
 0.549634   2.11                                                  1214400600450 
 0.549634   2.04                                                  1214400600451 
 0.549975   2.13                                                  1214400600452 
 0.549975   2.21                                                  1214400600453 
 0.550317   2.06                                                  1214400600454 
 0.550659   2.14                                                  1214400600455 
 0.551001   2.32                                                  1214400600456 
 0.551343   2.11                                                  1214400600457 
 0.551685   2.23                                                  1214400600458 
 0.552027   2.38                                                  1214400600459 
 0.552369   2.21                                                  1214400600460 
 0.552710   1.94                                                  1214400600461 
 0.553052   1.64                                                  1214400600462 
 0.553394   1.52                                                  1214400600463 
 0.553696   1.60                                                  1214400600464 
 0.554078   1.44                                                  1214400600465 
 0.554420   1.54                                                  1214400600466 
 0.554762   1.50                                                  1214400600467 
 0.555103   1.52                                                  1214400600468 
 0.555445   1.63                                                  1214400600469 
 0.555787   1.64                                                  1214400600470 
 0.556129   2.02                                                  1214400600471 
 0.556471   2.12                                                  1214400600472 
 0.556813   2.10                                                  1214400600473 
 0.557155   2.82                                                  1214400600474 
 0.557496   3.50                                                  1214400600475 
 0.557838   3.83                                                  1214400600476 
 0.558180   3.44                                                  1214400600477 
 0.558522   2.94                                                  1214400600478 
 0.558864   2.70                                                  1214400600479 
 0.559206   2.83                                                  1214400600480 
 0.559547   3.78                                                  1214400600481 
 0.559889   4.73                                                  1214400600482 
 0.560231   5.40                                                  1214400600483 
 0.560573   5.12                                                  1214400600484 
 0.560915   4.60                                                  1214400600485 
 0.561257   4.11                                                  1214400600486 
 0.561598   3.72                                                  1214400600487 
 0.561940   3.51                                                  1214400600488 
 0.562282   3.13                                                  1214400600489 
 0.562624   3.22                                                  1214400600490 
 0.562966   3.12                                                  1214400600491 
 0.563308   3.11                                                  1214400600492 
 0.563649   3.22                                                  1214400600493 
 0.563991   2.91                                                  1214400600494 
 0.564333   2.82                                                  1214400600495 
 0.564346   3.21                                                  1214400600496 
 0.564675   2.55                                                  1214400600497 
 0.564768   3.02                                                  1214400600498 
 0.565017   2.60                                                  1214400600499 
 0.565191   3.10                                                  1214400600500 
 0.565358   2.50                                                  1214400600501 
 0.565613   3.11                                                  1214400600502 
 0.566035   2.90                                                  1214400600503 
 0.566457   2.62                                                  1214400600504 
 0.566880   2.50                                                  1214400600505 
 0.567302   2.42                                                  1214400600506 
 0.567724   2.52                                                  1214400600507 
 0.568147   2.75                                                  1214400600508 
 0.568569   3.00                                                  1214400600509 
 0.568991   2.82                                                  1214400600510 
 0.569413   2.62                                                  1214400600511 
 0.569836   2.50                                                  1214400600512 
 0.570258   2.15                                                  1214400600513 
 0.570680   2.10                                                  1214400600514 
 0.571097   2.10                                                  1214400600515 
 0.571525   1.90                                                  1214400600516 
 0.571942   2.00                                                  1214400600517 
 0.572369   2.02                                                  1214400600518 
 0.572786   1.75                                                  1214400600519 
 0.573214   1.95                                                  1214400600520 
 0.573631   2.07                                                  1214400600521 
 0.574058   2.21                                                  1214400600522 
 0.574475   2.41                                                  1214400600523 
 0.574903   2.70                                                  1214400600524 
 0.575320   3.46                                                  1214400600525 
 0.575747   4.10                                                  1214400600526 
 0.576169   5.06                                                  1214400600527 
 0.576592   5.84                                                  1214400600528 
 0.577009   6.60                                                  1214400600529 
 0.577436   6.80                                                  1214400600530 
 0.577858   6.51                                                  1214400600531 
 0.578281   5.35                                                  1214400600532 
 0.578698   5.00                                                  1214400600533 
 0.579125   4.40                                                  1214400600534 
 0.579969   3.80                                                  1214400600535 
 0.580392   3.42                                                  1214400600536 
 0.580814   2.90                                                  1214400600537 
 0.581236   2.70                                                  1214400600538 
 0.581658   2.65                                                  1214400600539 
 0.582080   2.49                                                  1214400600540 
 0.582503   2.31                                                  1214400600541 
 0.582925   2.21                                                  1214400600542 
 0.583347   2.00                                                  1214400600543 
 0.583347   2.20                                                  1214400600544 
 0.583769   2.26                                                  1214400600545 
 0.584191   2.00                                                  1214400600546 
 0.584614   2.00                                                  1214400600547 
 0.585458   2.00                                                  1214400600548 
 0.585880   1.80                                                  1214400600549 
 0.586302   1.89                                                  1214400600550 
 0.586724   1.90                                                  1214400600551 
 0.587147   2.00                                                  1214400600552 
 0.587569   1.90                                                  1214400600553 
 0.587991   1.80                                                  1214400600554 
 0.588413   1.89                                                  1214400600555 
 0.588835   2.07                                                  1214400600556 
 0.589257   2.00                                                  1214400600557 
 0.589680   1.90                                                  1214400600558 
 0.590102   2.00                                                  1214400600559 
 0.590524   2.10                                                  1214400600560 
 0.590946   2.09                                                  1214400600561 
 0.591368   1.70                                                  1214400600562 
 0.591790   1.60                                                  1214400600563 
 0.592213   1.62                                                  1214400600564 
 0.592635   1.50                                                  1214400600565 
 0.593057   1.509                                                 1214400600566 
 0.593479   1.80                                                  1214400600567 
 0.593901   1.70                                                  1214400600568 
 0.594323   1.85                                                  1214400600569 
 0.594745   2.05                                                  1214400600570 
 0.595167   2.30                                                  1214400600571 
 0.595590   2.15                                                  1214400600572 
 0.596012   2.20                                                  1214400600573 
 0.596434   2.03                                                  1214400600574 
 0.596856   1.85                                                  1214400600575 
 0.597278   1.80                                                  1214400600576 
 0.597700   1.77                                                  1214400600577 
 0.598122   1.75                                                  1214400600578 
 0.598544   1.65                                                  1214400600579 
 0.598966   1.60                                                  1214400600580 
 0.600314   1.45                                                  1214400600581 
 0.600755   1.50                                                  1214400600582 
 0.601196   1.65                                                  1214400600583 
 0.601637   1.40                                                  1214400600584 
 0.602078   1.30                                                  1214400600585 
 0.602740   1.575                                                 1214400600586 
 0.603401   1.77                                                  1214400600587 
 0.603842   1.60                                                  1214400600588 
 0.604283   1.68                                                  1214400600589 
 0.604724   1.68                                                  1214400600590 
 0.605165   1.30                                                  1214400600591 
 0.605606   1.27                                                  1214400600592 
 0.606047   1.34                                                  1214400600593 
 0.606708   1.12                                                  1214400600594 
 0.607369   0.95                                                  1214400600595 
 0.607810   1.08                                                  1214400600596 
 0.608251   0.90                                                  1214400600597 
 0.608692   1.07                                                  1214400600598 
 0.609133   1.20                                                  1214400600599 
 0.609574   1.04                                                  1214400600600 
 0.610015   1.27                                                  1214400600601 
 0.610676   1.085                                                 1214400600602 
 0.611338   1.41                                                  1214400600603 
 0.611778   1.80                                                  1214400600604 
 0.612219   2.35                                                  1214400600605 
 0.612660   3.15                                                  1214400600606 
 0.613101   3.80                                                  1214400600607 
 0.613542   4.39                                                  1214400600608 
 0.613983   4.51                                                  1214400600609 
 0.614644   3.86                                                  1214400600610 
 0.615306   2.87                                                  1214400600611 
 0.615746   2.60                                                  1214400600612 
 0.616187   2.60                                                  1214400600613 
 0.616628   2.39                                                  1214400600614 
 0.617069   2.30                                                  1214400600615 
 0.617510   2.07                                                  1214400600616 
 0.617951   1.92                                                  1214400600617 
 0.618612   1.915                                                 1214400600618 
 0.619714   1.70                                                  1214400600619 
 0.620155   1.60                                                  1214400600620 
 0.620596   1.57                                                  1214400600621 
 0.621037   1.57                                                  1214400600622 
 0.621478   1.68                                                  1214400600623 
 0.621918   1.60                                                  1214400600624 
 0.622580   1.65                                                  1214400600625 
 0.623241   1.51                                                  1214400600626 
 0.623682   1.50                                                  1214400600627 
 0.624123   1.41                                                  1214400600628 
 0.624563   1.40                                                  1214400600629 
 0.625004   1.40                                                  1214400600630 
 0.625445   1.37                                                  1214400600631 
 0.625886   1.20                                                  1214400600632 
 0.626547   1.24999                                               1214400600633 
 0.627208   1.30                                                  1214400600634 
 0.627649   1.20                                                  1214400600635 
 0.628090   1.19                                                  1214400600636 
 0.628531   1.17                                                  1214400600637 
 0.628972   1.65                                                  1214400600638 
 0.629412   1.32                                                  1214400600639 
 0.629853   1.40                                                  1214400600640 
 0.630514   1.435                                                 1214400600641 
 0.631193   1.30                                                  1214400600642 
 0.631630   1.30                                                  1214400600643 
 0.632077   1.29                                                  1214400600644 
 0.632518   1.21                                                  1214400600645 
 0.632958   1.40                                                  1214400600646 
 0.633399   1.60                                                  1214400600647 
 0.633840   1.50                                                  1214400600648 
 0.634501   1.45                                                  1214400600649 
 0.635162   1.00                                                  1214400600650 
 0.635603   0.90                                                  1214400600651 
 0.636038   0.82                                                  1214400600652 
 0.636539   0.71                                                  1214400600653 
 0.637023   0.735                                                 1214400600654 
 0.637506   0.805                                                 1214400600655 
 0.637989   0.705                                                 1214400600656 
 0.638547   0.83                                                  1214400600657 
 0.639125   0.90                                                  1214400600658 
 0.639404   1.00                                                  1214400600659 
 0.639766   1.20                                                  1214400600660 
 0.640295   1.31                                                  1214400600661 
 0.640824   1.50                                                  1214400600662 
 0.641349   2.04                                                  1214400600663 
 0.641875   2.52                                                  1214400600664 
 0.642411   3.12                                                  1214400600665 
 0.642937   3.34                                                  1214400600666 
 0.643463   3.10                                                  1214400600667 
 0.643969   2.63                                                  1214400600668 
 0.644525   1.82                                                  1214400600669 
 0.645051   1.20                                                  1214400600670 
 0.645587   1.07                                                  1214400600671 
 0.646153   0.80                                                  1214400600672 
 0.646649   0.69                                                  1214400600673 
 0.647165   0.68                                                  1214400600674 
 0.647701   0.68                                                  1214400600675 
 0.648227   0.80                                                  1214400600676 
 0.649289   1.00                                                  1214400600677 
 0.649815   1.02                                                  1214400600678 
 0.650341   1.54                                                  1214400600679 
 0.650867   1.80                                                  1214400600680 
 0.651393   1.89                                                  1214400600681 
 0.651929   1.70                                                  1214400600682 
 0.652455   1.79                                                  1214400600683 
 0.652981   2.00                                                  1214400600684 
 0.653517   2.22                                                  1214400600685 
 0.654043   2.40                                                  1214400600686 
 0.654569   2.41                                                  1214400600687 
 0.655105   2.39                                                  1214400600688 
 0.655631   2.81                                                  1214400600689 
 0.656157   3.02                                                  1214400600690 
 0.656683   2.52                                                  1214400600691 
 0.657219   1.90                                                  1214400600692 
 0.657745   1.80                                                  1214400600693 
 0.658415   1.70                                                  1214400600694 
 0.659065   1.87                                                  1214400600695 
 0.659571   1.69                                                  1214400600696 
 0.660077   1.69                                                  1214400600697 
 0.660583   1.86                                                  1214400600698 
 0.661099   2.10                                                  1214400600699 
 0.661605   2.32                                                  1214400600700 
 0.662111   2.43                                                  1214400600701 
 0.662617   2.40                                                  1214400600702 
 0.663124   2.69                                                  1214400600703 
 0.663640   2.62                                                  1214400600704 
 0.664146   2.61                                                  1214400600705 
 0.664652   2.89                                                  1214400600706 
 0.665158   2.92                                                  1214400600707 
 0.665664   3.12                                                  1214400600708 
 0.666180   3.22                                                  1214400600709 
 0.666686   3.61                                                  1214400600710 
 0.667192   3.83                                                  1214400600711 
 0.667698   3.62                                                  1214400600712 
 0.668204   3.61                                                  1214400600713 
 0.668720   3.70                                                  1214400600714 
 0.669226   3.91                                                  1214400600715 
 0.669732   4.02                                                  1214400600716 
 0.670238   4.12                                                  1214400600717 
 0.670744   3.82                                                  1214400600718 
 0.671260   3.82                                                  1214400600719 
 0.671766   3.82                                                  1214400600720 
 0.672272   3.82                                                  1214400600721 
 0.672778   3.71                                                  1214400600722 
 0.673284   3.70                                                  1214400600723 
 0.673800   3.80                                                  1214400600724 
 0.674306   3.69                                                  1214400600725 
 0.674812   3.68                                                  1214400600726 
 0.675318   3.50                                                  1214400600727 
 0.675824   3.57                                                  1214400600728 
 0.676340   3.67                                                  1214400600729 
 0.676846   3.69                                                  1214400600730 
 0.677352   3.69                                                  1214400600731 
 0.677858   3.69                                                  1214400600732 
 0.678404   3.79                                                  1214400600733 
 0.678969   3.80                                                  1214400600734 
 0.679535   3.40                                                  1214400600735 
 0.680100   3.39                                                  1214400600736 
 0.680666   3.30                                                  1214400600737 
 0.681231   3.29                                                  1214400600738 
 0.681797   3.12                                                  1214400600739 
 0.682362   2.62                                                  1214400600740 
 0.682928   2.40                                                  1214400600741 
 0.683493   2.02                                                  1214400600742 
 0.684069   1.92                                                  1214400600743 
 0.684634   1.90                                                  1214400600744 
 0.685200   1.82                                                  1214400600745 
 0.685765   2.00                                                  1214400600746 
 0.686331   2.31                                                  1214400600747 
 0.686896   2.10                                                  1214400600748 
 0.687462   2.11                                                  1214400600749 
 0.688027   2.01                                                  1214400600750 
 0.688592   1.81                                                  1214400600751 
 0.689158   1.62                                                  1214400600752 
 0.689733   1.81                                                  1214400600753 
 0.690299   2.19                                                  1214400600754 
 0.690864   2.80                                                  1214400600755 
 0.691429   3.82                                                  1214400600756 
 0.691995   4.20                                                  1214400600757 
 0.692560   4.43                                                  1214400600758 
 0.693126   4.52                                                  1214400600759 
 0.693691   3.95                                                  1214400600760 
 0.694256   3.29                                                  1214400600761 
 0.694822   2.54                                                  1214400600762 
 0.695397   1.92                                                  1214400600763 
 0.695963   1.61                                                  1214400600764 
 0.696528   1.32                                                  1214400600765 
 0.697093   1.20                                                  1214400600766 
 0.697659   1.20                                                  1214400600767 
 0.698244   1.12                                                  1214400600768 
 0.698779   1.12                                                  1214400600769 
 0.699315   1.02                                                  1214400600770 
 0.699851   0.95                                                  1214400600771 
 0.700386   1.02                                                  1214400600772 
 0.700922   0.85                                                  1214400600773 
 0.701457   0.91                                                  1214400600774 
 0.701993   1.02                                                  1214400600775 
 0.702529   0.84                                                  1214400600776 
 0.703064   0.92                                                  1214400600777 
 0.703600   0.84                                                  1214400600778 
 0.704135   0.90                                                  1214400600779 
 0.704671   0.91                                                  1214400600780 
 0.705206   1.10                                                  1214400600781 
 0.705735   1.04                                                  1214400600782 
 0.706264   1.18                                                  1214400600783 
 0.706793   1.40                                                  1214400600784 
 0.707319   1.42                                                  1214400600785 
 0.707845   1.63                                                  1214400600786 
 0.708380   1.71                                                  1214400600787 
 0.708861   1.62                                                  1214400600788 
 0.709431   1.91                                                  1214400600789 
 0.709957   2.18                                                  1214400600790 
 0.710492   2.41                                                  1214400600791 
 0.711018   2.50                                                  1214400600792 
 0.711554   2.61                                                  1214400600793 
 0.712079   3.00                                                  1214400600794 
 0.712605   3.30                                                  1214400600795 
 0.713140   3.51                                                  1214400600796 
 0.713656   3.70                                                  1214400600797 
 0.714191   4.00                                                  1214400600798 
 0.714717   4.11                                                  1214400600799 
 0.715252   4.12                                                  1214400600800 
 0.715778   4.21                                                  1214400600801 
 0.716304   4.11                                                  1214400600802 
 0.716829   4.00                                                  1214400600803 
 0.717365   3.40                                                  1214400600804 
 0.717890   4.18                                                  1214400600805 
 0.718416   4.50                                                  1214400600806 
 0.719477   4.90                                                  1214400600807 
 0.720002   4.90                                                  1214400600808 
 0.720528   4.60                                                  1214400600809 
 0.721063   4.61                                                  1214400600810 
 0.721589   4.11                                                  1214400600811 
 0.722114   4.40                                                  1214400600812 
 0.722640   4.60                                                  1214400600813 
 0.723175   4.61                                                  1214400600814 
 0.723701   5.07                                                  1214400600815 
 0.724236   5.80                                                  1214400600816 
 0.724762   6.10                                                  1214400600817 
 0.725287   5.50                                                  1214400600818 
 0.725823   4.68                                                  1214400600819 
 0.726348   4.18                                                  1214400600820 
 0.726874   3.50                                                  1214400600821 
 0.727409   3.28                                                  1214400600822 
 0.727934   3.30                                                  1214400600823 
 0.728460   3.40                                                  1214400600824 
 0.728985   3.20                                                  1214400600825 
 0.729686   2.565                                                 1214400600826 
 0.730259   2.395                                                 1214400600827 
 0.730572   2.30                                                  1214400600828 
 0.731092   2.12                                                  1214400600829 
 0.731712   2.12                                                  1214400600830 
 0.732331   2.40                                                  1214400600831 
 0.732951   3.07                                                  1214400600832 
 0.733571   3.60                                                  1214400600833 
 0.734190   3.80                                                  1214400600834 
 0.734810   2.91                                                  1214400600835 
 0.735430   2.39                                                  1214400600836 
 0.736049   1.87                                                  1214400600837 
 0.736669   1.70                                                  1214400600838 
 0.737288   1.70                                                  1214400600839 
 0.737908   2.08                                                  1214400600840 
 0.738528   2.42                                                  1214400600841 
 0.739147   3.12                                                  1214400600842 
 0.739767   3.40                                                  1214400600843 
 0.740386   3.82                                                  1214400600844 
 0.741006   4.19                                                  1214400600845 
 0.741625   4.30                                                  1214400600846 
 0.742245   4.48                                                  1214400600847 
 0.742864   4.31                                                  1214400600848 
 0.743484   4.00                                                  1214400600849 
 0.744104   3.88                                                  1214400600850 
 0.744723   3.52                                                  1214400600851 
 0.745343   3.88                                                  1214400600852 
 0.745962   3.90                                                  1214400600853 
 0.746582   4.39                                                  1214400600854 
 0.747201   4.00                                                  1214400600855 
 0.747821   3.85                                                  1214400600856 
 0.749369   3.495                                                 1214400600857 
 0.750299   4.70                                                  1214400600858 
 0.751227   6.135                                                 1214400600859 
 0.752466   6.865                                                 1214400600860 
 0.753396   6.29                                                  1214400600861 
 0.754325   5.095                                                 1214400600862 
 0.755254   4.39                                                  1214400600863 
 0.756183   3.785                                                 1214400600864 
 0.758392   3.43                                                  1214400600865 
 0.759382   3.10                                                  1214400600866 
 0.760372   2.72                                                  1214400600867 
 0.761362   2.62                                                  1214400600868 
 0.762352   2.92                                                  1214400600869 
 0.763342   3.07                                                  1214400600870 
 0.764332   3.12                                                  1214400600871 
 0.765322   2.79                                                  1214400600872 
 0.766312   2.42                                                  1214400600873 
 0.767302   2.87                                                  1214400600874 
 0.768292   3.82                                                  1214400600875 
 0.769282   4.35                                                  1214400600876 
 0.770272   4.32                                                  1214400600877 
 0.771262   4.10                                                  1214400600878 
 0.772252   3.92                                                  1214400600879 
 0.773242   3.86                                                  1214400600880 
 0.774232   4.01                                                  1214400600881 
 0.775221   3.87                                                  1214400600882 
 0.776211   4.03                                                  1214400600883 
 0.777201   4.215                                                 1214400600884 
 0.778211   4.42                                                  1214400600885 
 0.779201   3.995                                                 1214400600886 
 0.780190   3.82                                                  1214400600887 
 0.781180   4.01                                                  1214400600888 
 0.782170   3.62                                                  1214400600889 
 0.783160   3.655                                                 1214400600890 
 0.784149   4.50                                                  1214400600891 
 0.785139   5.28                                                  1214400600892 
 0.786129   6.20                                                  1214400600893 
 0.787119   6.795                                                 1214400600894 
 0.788108   6.58                                                  1214400600895 
 0.789098   5.135                                                 1214400600896 
 0.790088   4.410                                                 1214400600897 
 0.791077   3.87                                                  1214400600898 
 0.792067   3.77                                                  1214400600899 
 0.793056   3.94                                                  1214400600900 
 0.794046   3.50                                                  1214400600901 
 0.795036   3.335                                                 1214400600902 
 0.796025   3.00                                                  1214400600903 
 0.797015   2.85                                                  1214400600904 
 0.798024   2.80                                                  1214400600905 
 0.799014   2.935                                                 1214400600906 
 0.800003   2.92                                                  1214400600907 
 0.800993   3.01                                                  1214400600908 
 0.801982   3.50                                                  1214400600909 
 0.802972   3.81                                                  1214400600910 
 0.803963   3.80                                                  1214400600911 
 0.804951   3.105                                                 1214400600912 
 0.805940   2.58                                                  1214400600913 
 0.806930   2.67                                                  1214400600914 
 0.807919   2.31                                                  1214400600915 
 0.808908   2.15                                                  1214400600916 
 0.809898   2.10                                                  1214400600917 
 0.810887   2.24                                                  1214400600918 
 0.811877   2.50                                                  1214400600919 
 0.812866   2.74                                                  1214400600920 
 0.813855   3.32                                                  1214400600921 
 0.814845   3.175                                                 1214400600922 
 0.815834   3.12                                                  1214400600923 
 0.816823   2.95                                                  1214400600924 
 0.817880   3.00                                                  1214400600925 
 0.818587   2.89                                                  1214400600926 
 0.819647   2.295                                                 1214400600927 
 0.820708   1.82                                                  1214400600928 
 0.821769   1.705                                                 1214400600929 
 0.822829   2.04                                                  1214400600930 
 0.823536   2.13                                                  1214400600931 
 0.824597   2.95                                                  1214400600932 
 0.825657   3.53                                                  1214400600933 
 0.826717   3.865                                                 1214400600934 
 0.827778   3.63                                                  1214400600935 
 0.828485   2.84                                                  1214400600936 
 0.829545   2.025                                                 1214400600937 
 0.830606   1.71                                                  1214400600938 
 0.831666   1.865                                                 1214400600939 
 0.832726   2.52                                                  1214400600940 
 0.833433   2.62                                                  1214400600941 
 0.834494   2.805                                                 1214400600942 
 0.835554   2.60                                                  1214400600943 
 0.836614   1.99                                                  1214400600944 
 0.837675   2.12                                                  1214400600945 
 0.838382   2.50                                                  1214400600946 
 0.839442   2.695                                                 1214400600947 
 0.840502   3.00                                                  1214400600948 
 0.841562   2.84                                                  1214400600949 
 0.842623   3.31                                                  1214400600950 
 0.844405   2.67                                                  1214400600951 
 0.845466   3.00                                                  1214400600952 
 0.846172   2.77                                                  1214400600953 
 0.847233   3.07                                                  1214400600954 
 0.848293   3.90                                                  1214400600955 
 0.849353   3.72                                                  1214400600956 
 0.850413   2.80                                                  1214400600957 
 0.851120   2.17                                                  1214400600958 
 0.852180   1.855                                                 1214400600959 
 0.853240   1.87                                                  1214400600960 
 0.854300   1.72                                                  1214400600961 
 0.855360   1.61                                                  1214400600962 
 0.856420   1.41                                                  1214400600963 
 0.857480   1.50                                                  1214400600964 
 0.858187   1.80                                                  1214400600965 
 0.859247   2.365                                                 1214400600966 
 0.860307   3.07                                                  1214400600967 
 0.861367   3.03                                                  1214400600968 
 0.862427   3.07                                                  1214400600969 
 0.863133   2.90                                                  1214400600970 
 0.864193   2.935                                                 1214400600971 
 0.865253   2.92                                                  1214400600972 
 0.866313   3.335                                                 1214400600973 
 0.867373   3.67                                                  1214400600974 
 0.868080   3.99                                                  1214400600975 
 0.869139   3.55                                                  1214400600976 
 0.870199   3.27                                                  1214400600977 
 0.871259   2.90                                                  1214400600978 
 0.872319   2.60                                                  1214400600979 
 0.873025   2.81                                                  1214400600980 
 0.874085   3.075                                                 1214400600981 
 0.875145   3.50                                                  1214400600982 
 0.876205   3.235                                                 1214400600983 
 0.877264   2.82                                                  1214400600984 
 0.877971   2.50                                                  1214400600985 
 0.879031   2.035                                                 1214400600986 
 0.880090   2.10                                                  1214400600987 
 0.881150   1.895                                                 1214400600988 
 0.882210   1.95                                                  1214400600989 
 0.882916   1.75                                                  1214400600990 
 0.883976   2.09                                                  1214400600991 
 0.885035   2.47                                                  1214400600992 
 0.886095   2.85                                                  1214400600993 
 0.887155   2.71                                                  1214400600994 
 0.887861   2.48                                                  1214400600995 
 0.888921   2.56                                                  1214400600996 
 0.889980   2.65                                                  1214400600997 
 0.891040   2.51                                                  1214400600998 
 0.892099   2.15                                                  1214400600999 
 0.892806   1.85                                                  1214400601000 
 0.893865   1.60                                                  1214400601001 
 0.894925   1.60                                                  1214400601002 
 0.896353   1.50                                                  1214400601003 
 0.897177   1.67                                                  1214400601004 
 0.898001   1.90                                                  1214400601005 
 0.898825   1.97                                                  1214400601006 
 0.899649   1.87                                                  1214400601007 
 0.900885   2.425                                                 1214400601008 
 0.902121   2.75                                                  1214400601009 
 0.902945   2.91                                                  1214400601010 
 0.903769   2.55                                                  1214400601011 
 0.904596   2.56                                                  1214400601012 
 0.905828   2.13                                                  1214400601013 
 0.907065   1.91                                                  1214400601014 
 0.907889   2.05                                                  1214400601015 
 0.908712   1.82                                                  1214400601016 
 0.909536   1.85                                                  1214400601017 
 0.910772   1.72                                                  1214400601018 
 0.912008   1.74                                                  1214400601019 
 0.912832   1.70                                                  1214400601020 
 0.913656   1.71                                                  1214400601021 
 0.914479   1.70                                                  1214400601022 
 0.915715   2.075                                                 1214400601023 
 0.916951   2.35                                                  1214400601024 
 0.917775   2.25                                                  1214400601025 
 0.918598   2.07                                                  1214400601026 
 0.919422   1.80                                                  1214400601027 
 0.920657   1.655                                                 1214400601028 
 0.921893   1.92                                                  1214400601029 
 0.922717   1.68                                                  1214400601030 
 0.923541   1.90                                                  1214400601031 
 0.924365   1.76                                                  1214400601032 
 0.925600   1.845                                                 1214400601033 
 0.926836   2.00                                                  1214400601034 
 0.927659   1.87                                                  1214400601035 
 0.928483   1.89                                                  1214400601036 
 0.929307   1.75                                                  1214400601037 
 0.930542   1.525                                                 1214400601038 
 0.931778   1.64                                                  1214400601039 
 0.932601   1.76                                                  1214400601040 
 0.933425   2.00                                                  1214400601041 
 0.934249   2.35                                                  1214400601042 
 0.935483   2.49999                                               1214400601043 
 0.936719   2.21                                                  1214400601044 
 0.937543   1.85                                                  1214400601045 
 0.938366   1.42                                                  1214400601046 
 0.939190   1.18                                                  1214400601047 
 0.941476   1.31                                                  1214400601048 
 0.942403   1.11                                                  1214400601049 
 0.943375   1.35                                                  1214400601050 
 0.944347   1.32                                                  1214400601051 
 0.945318   1.37                                                  1214400601052 
 0.946290   1.55                                                  1214400601053 
 0.947262   1.79                                                  1214400601054 
 0.948234   2.04                                                  1214400601055 
 0.949205   1.87                                                  1214400601056 
 0.950177   2.14                                                  1214400601057 
 0.951149   2.10                                                  1214400601058 
 0.952121   2.19                                                  1214400601059 
 0.953092   2.20                                                  1214400601060 
 0.954064   2.07                                                  1214400601061 
 0.955035   2.00                                                  1214400601062 
 0.956007   1.80                                                  1214400601063 
 0.956979   1.75                                                  1214400601064 
 0.957950   1.20                                                  1214400601065 
 0.958922   1.07                                                  1214400601066 
 0.959894   1.06                                                  1214400601067 
 0.960865   1.25                                                  1214400601068 
 0.961837   1.45                                                  1214400601069 
 0.962808   1.55                                                  1214400601070 
 0.963780   1.62                                                  1214400601071 
 0.964751   1.77                                                  1214400601072 
 0.965723   2.40                                                  1214400601073 
 0.966694   2.75                                                  1214400601074 
 0.967666   3.10                                                  1214400601075 
 0.968637   3.60                                                  1214400601076 
 0.969609   3.62                                                  1214400601077 
 0.970580   3.47                                                  1214400601078 
 0.971552   3.27                                                  1214400601079 
 0.972523   3.10                                                  1214400601080 
 0.973494   3.15                                                  1214400601081 
 0.974951   3.55                                                  1214400601082 
 0.976408   3.90                                                  1214400601083 
 0.977380   3.85                                                  1214400601084 
 0.978351   3.62                                                  1214400601085 
 0.979322   3.25                                                  1214400601086 
 0.980294   3.40                                                  1214400601087 
 0.981265   2.95                                                  1214400601088 
 0.982236   2.70                                                  1214400601089 
 0.983208   2.42                                                  1214400601090 
 0.984179   2.10                                                  1214400601091 
 0.985150   2.05                                                  1214400601092 
 0.986121   1.87                                                  1214400601093 
 0.987093   1.85                                                  1214400601094 
 0.988064   1.83                                                  1214400601095 
 0.989035   1.80                                                  1214400601096 
 0.990006   2.10                                                  1214400601097 
 0.990977   2.30                                                  1214400601098 
 0.991949   2.40                                                  1214400601099 
 0.992920   2.85                                                  1214400601100 
 0.993891   2.93                                                  1214400601101 
 0.994862   2.82                                                  1214400601102 
 0.996800   2.95                                                  1214400601103 
 0.997768   3.35                                                  1214400601104 
 0.998746   3.00                                                  1214400601105 
 0.999714   2.80                                                  1214400601106 
 1.00068    2.79                                                  1214400601107 
 1.00188    2.21                                                  1214400601108 
 1.00286    2.01                                                  1214400601109 
 1.00384    2.08                                                  1214400601110 
 1.00508    2.80                                                  1214400601111 
 1.00607    3.20                                                  1214400601112 
 1.00706    3.10                                                  1214400601113 
 1.00805    3.21                                                  1214400601114 
 1.00903    3.20                                                  1214400601115 
 1.01002    3.10                                                  1214400601116 
 1.01101    3.10                                                  1214400601117 
 1.01200    2.85                                                  1214400601118 
 1.01299    2.45                                                  1214400601119 
 1.01397    2.25                                                  1214400601120 
 1.01496    2.65                                                  1214400601121 
 1.01595    2.45                                                  1214400601122 
 1.01694    2.35                                                  1214400601123 
 1.01792    2.35                                                  1214400601124 
 1.01891    2.65                                                  1214400601125 
 1.01990    2.10                                                  1214400601126 
 1.02089    2.00                                                  1214400601127 
 1.02187    2.05                                                  1214400601128 
 1.02286    1.75                                                  1214400601129 
 1.02385    1.82                                                  1214400601130 
 1.02484    1.65                                                  1214400601131 
 1.02582    1.50                                                  1214400601132 
 1.02681    1.60                                                  1214400601133 
 1.02780    1.45                                                  1214400601134 
 1.02879    1.62                                                  1214400601135 
 1.02977    1.50                                                  1214400601136 
 1.03076    1.70                                                  1214400601137 
 1.03175    1.85                                                  1214400601138 
 1.03274    2.10                                                  1214400601139 
 1.03372    2.10                                                  1214400601140 
 1.03471    2.10                                                  1214400601141 
 1.03580    2.05                                                  1214400601142 
 1.03688    1.95                                                  1214400601143 
 1.03807    2.05                                                  1214400601144 
 1.03915    2.25                                                  1214400601145 
 1.04024    2.57                                                  1214400601146 
 1.04142    2.77                                                  1214400601147 
 1.04251    2.92                                                  1214400601148 
 1.04360    2.80                                                  1214400601149 
 1.04478    2.85                                                  1214400601150 
 1.04587    3.10                                                  1214400601151 
 1.04695    3.15                                                  1214400601152 
 1.04804    3.05                                                  1214400601153 
 1.04922    3.35                                                  1214400601154 
 1.05031    3.57                                                  1214400601155 
 1.05140    3.40                                                  1214400601156 
 1.05258    3.70                                                  1214400601157 
 1.05367    3.67                                                  1214400601158 
 1.05475    3.62                                                  1214400601159 
 1.05594    3.60                                                  1214400601160 
 1.05702    3.47                                                  1214400601161 
 1.05811    3.55                                                  1214400601162 
 1.05919    3.20                                                  1214400601163 
 1.06028    3.05                                                  1214400601164 
 1.06146    3.06                                                  1214400601165 
 1.06255    2.76                                                  1214400601166 
 1.06373    2.75                                                  1214400601167 
 1.06482    2.82                                                  1214400601168 
 1.06591    2.61                                                  1214400601169 
 1.06699    2.75                                                  1214400601170 
 1.06818    2.65                                                  1214400601171 
 1.06926    2.81                                                  1214400601172 
 1.07035    2.95                                                  1214400601173 
 1.07153    2.76                                                  1214400601174 
 1.07262    2.94                                                  1214400601175 
 1.07370    2.83                                                  1214400601176 
 1.07489    2.98                                                  1214400601177 
 1.07597    3.27                                                  1214400601178 
 1.07706    3.40                                                  1214400601179 
 1.07824    3.63                                                  1214400601180 
 1.07933    3.70                                                  1214400601181 
 1.08041    3.68                                                  1214400601182 
 1.08160    3.35                                                  1214400601183 
 1.08268    3.20                                                  1214400601184 
 1.08377    2.90                                                  1214400601185 
 1.08485    2.60                                                  1214400601186 
 1.08604    2.70                                                  1214400601187 
 1.08712    2.30                                                  1214400601188 
 1.08821    2.60                                                  1214400601189 
 1.08939    2.60                                                  1214400601190 
 1.09048    2.70                                                  1214400601191 
 1.09156    2.77                                                  1214400601192 
 1.09265    3.10                                                  1214400601193 
 1.09383    2.93                                                  1214400601194 
 1.09492    2.69                                                  1214400601195 
 1.09580    2.82                                                  1214400601196 
 1.09679    2.64                                                  1214400601197 
 1.09768    2.37                                                  1214400601198 
 1.09867    2.37                                                  1214400601199 
 1.09955    2.21                                                  1214400601200 
 1.10044    2.03                                                  1214400601201 
 1.10143    1.80                                                  1214400601202 
 1.10232    1.83                                                  1214400601203 
 1.10330    1.67                                                  1214400601204 
 1.10429    1.65                                                  1214400601205 
 1.10518    1.77                                                  1214400601206 
 1.10616    2.00                                                  1214400601207 
 1.10705    1.76                                                  1214400601208 
 1.10804    2.03                                                  1214400601209 
 1.10892    1.99                                                  1214400601210 
 1.10991    2.31                                                  1214400601211 
 1.11080    2.10                                                  1214400601212 
 1.11223    2.24999                                               1214400601213 
 1.11366    2.31                                                  1214400601214 
 1.11465    2.35                                                  1214400601215 
 1.11553    2.25                                                  1214400601216 
 1.11642    2.20                                                  1214400601217 
 1.11741    2.00                                                  1214400601218 
 1.11839    1.82                                                  1214400601219 
 1.11928    1.85                                                  1214400601220 
 1.12027    1.77                                                  1214400601221 
 1.12115    2.02                                                  1214400601222 
 1.12214    1.76                                                  1214400601223 
 1.12303    1.85                                                  1214400601224 
 1.12401    1.60                                                  1214400601225 
 1.12490    1.80                                                  1214400601226 
 1.12589    2.02                                                  1214400601227 
 1.12678    2.10                                                  1214400601228 
 1.12776    2.32                                                  1214400601229 
 1.12865    2.35                                                  1214400601230 
 1.12964    2.57                                                  1214400601231 
 1.13097    3.085                                                 1214400601232 
 1.13240    3.20                                                  1214400601233 
 1.13333    3.07                                                  1214400601234 
 1.13427    2.90                                                  1214400601235 
 1.13526    3.00                                                  1214400601236 
 1.13614    2.80                                                  1214400601237 
 1.13713    2.67                                                  1214400601238 
 1.13802    2.57                                                  1214400601239 
 1.13900    2.55                                                  1214400601240 
 1.13989    2.31                                                  1214400601241 
 1.14088    2.50                                                  1214400601242 
 1.14176    2.35                                                  1214400601243 
 1.14275    2.25                                                  1214400601244 
 1.14374    2.24                                                  1214400601245 
 1.14462    2.235                                                 1214400601246 
 1.14561    2.40                                                  1214400601247 
 1.14650    2.52                                                  1214400601248 
 1.14748    2.32                                                  1214400601249 
 1.14837    2.57                                                  1214400601250 
 1.14926    2.58                                                  1214400601251 
 1.15069    2.52                                                  1214400601252 
 1.15212    2.25                                                  1214400601253 
 1.15310    2.40                                                  1214400601254 
 1.15399    2.52                                                  1214400601255 
 1.15497    2.43                                                  1214400601256 
 1.15586    2.58                                                  1214400601257 
 1.15685    2.40                                                  1214400601258 
 1.15783    2.15                                                  1214400601259 
 1.15872    2.13                                                  1214400601260 
 1.15911    2.41                                                  1214400601261 
 1.16020    2.20                                                  1214400601262 
 1.16138    2.18                                                  1214400601263 
 1.16256    2.03                                                  1214400601264 
 1.16365    2.20                                                  1214400601265 
 1.16483    1.93                                                  1214400601266 
 1.16601    1.80                                                  1214400601267 
 1.16720    1.87                                                  1214400601268 
 1.16828    1.80                                                  1214400601269 
 1.16946    1.85                                                  1214400601270 
 1.17055    1.60                                                  1214400601271 
 1.17177    1.65                                                  1214400601272 
 1.17291    1.80                                                  1214400601273 
 1.17410    1.85                                                  1214400601274 
 1.17518    1.80                                                  1214400601275 
 1.17636    1.99                                                  1214400601276 
 1.17755    1.85                                                  1214400601277 
 1.17863    1.99                                                  1214400601278 
 1.17981    2.15                                                  1214400601279 
 1.18099    2.07                                                  1214400601280 
 1.18218    2.05                                                  1214400601281 
 1.18326    2.40                                                  1214400601282 
 1.18444    2.35                                                  1214400601283 
 1.18553    2.65                                                  1214400601284 
 1.18671    2.50                                                  1214400601285 
 1.18789    3.07                                                  1214400601286 
 1.18907    2.80                                                  1214400601287 
 1.19016    2.85                                                  1214400601288 
 1.19134    2.80                                                  1214400601289 
 1.19252    2.65                                                  1214400601290 
 1.19370    2.70                                                  1214400601291 
 1.19489    2.50                                                  1214400601292 
 1.19607    2.15                                                  1214400601293 
 1.19725    2.07                                                  1214400601294 
 1.19843    1.65                                                  1214400601295 
 1.19962    1.35                                                  1214400601296 
 1.20090    1.47                                                  1214400601297 
 1.20208    1.47                                                  1214400601298 
 1.20326    1.80                                                  1214400601299 
 1.20444    1.89                                                  1214400601300 
 1.20563    2.03                                                  1214400601301 
 1.20681    2.10                                                  1214400601302 
 1.20799    2.35                                                  1214400601303 
 1.20917    2.45                                                  1214400601304 
 1.21035    2.76                                                  1214400601305 
 1.21163    3.06                                                  1214400601306 
 1.21272    3.15                                                  1214400601307 
 1.21400    3.27                                                  1214400601308 
 1.21508    3.10                                                  1214400601309 
 1.21636    2.85                                                  1214400601310 
 1.21754    2.40                                                  1214400601311 
 1.21873    2.15                                                  1214400601312 
 1.21991    2.10                                                  1214400601313 
 1.22109    1.77                                                  1214400601314 
 1.22227    1.55                                                  1214400601315 
 1.22345    1.75                                                  1214400601316 
 1.22464    1.95                                                  1214400601317 
 1.22582    2.07                                                  1214400601318 
 1.22710    2.25                                                  1214400601319 
 1.22828    2.80                                                  1214400601320 
 1.22946    3.10                                                  1214400601321 
 1.23064    3.95                                                  1214400601322 
 1.23182    4.15                                                  1214400601323 
 1.23320    4.30                                                  1214400601324 
 1.23458    4.15                                                  1214400601325 
 1.23586    3.70                                                  1214400601326 
 1.23724    3.40                                                  1214400601327 
 1.23862    3.35                                                  1214400601328 
 1.23990    3.15                                                  1214400601329 
 1.24128    3.00                                                  1214400601330 
 1.24394    2.65                                                  1214400601331 
 1.24531    2.42                                                  1214400601332 
 1.24659    2.41                                                  1214400601333 
 1.24797    2.20                                                  1214400601334 
 1.24935    2.40                                                  1214400601335 
 1.25063    2.25                                                  1214400601336 
 1.25201    2.10                                                  1214400601337 
 1.25329    2.30                                                  1214400601338 
 1.25467    2.20                                                  1214400601339 
 1.25604    2.35                                                  1214400601340 
 1.25732    2.65                                                  1214400601341 
 1.25851    2.90                                                  1214400601342 
 1.25998    2.80                                                  1214400601343 
 1.26136    3.15                                                  1214400601344 
 1.26274    3.16                                                  1214400601345 
 1.26402    3.20                                                  1214400601346 
 1.26540    2.80                                                  1214400601347 
 1.26677    2.90                                                  1214400601348 
 1.26805    2.40                                                  1214400601349 
 1.26943    2.40                                                  1214400601350 
 1.27071    2.60                                                  1214400601351 
 1.27209    2.27                                                  1214400601352 
 1.27337    2.65                                                  1214400601353 
 1.27475    2.62                                                  1214400601354 
 1.27603    2.45                                                  1214400601355 
 1.27740    2.80                                                  1214400601356 
 1.27878    2.85                                                  1214400601357 
 1.28006    3.15                                                  1214400601358 
 1.28144    3.40                                                  1214400601359 
 1.28272    3.10                                                  1214400601360 
 1.28410    3.20                                                  1214400601361 
 1.28547    3.00                                                  1214400601362 
 1.28675    2.85                                                  1214400601363 
 1.28813    2.77                                                  1214400601364 
 1.28951    2.55                                                  1214400601365 
 1.29079    2.31                                                  1214400601366 
 1.29244    2.05                                                  1214400601367 
 1.29384    2.15                                                  1214400601368 
 1.29531    2.30                                                  1214400601369 
 1.29836    2.52                                                  1214400601370 
 1.30082    3.03                                                  1214400601371 
 1.30328    3.57                                                  1214400601372 
 1.30574    3.69                                                  1214400601373 
 1.30820    3.26                                                  1214400601374 
 1.31066    2.92                                                  1214400601375 
 1.31312    2.75                                                  1214400601376 
 1.31558    2.29                                                  1214400601377 
 1.31804    1.72                                                  1214400601378 
 1.32050    1.62                                                  1214400601379 
 1.32295    1.88                                                  1214400601380 
 1.32541    2.15                                                  1214400601381 
 1.32787    3.22                                                  1214400601382 
 1.33033    3.35                                                  1214400601383 
 1.33279    3.24                                                  1214400601384 
 1.33525    3.42                                                  1214400601385 
 1.33771    3.59                                                  1214400601386 
 1.34016    3.82                                                  1214400601387 
 1.34262    3.68                                                  1214400601388 
 1.34508    3.55                                                  1214400601389 
 1.34754    3.65                                                  1214400601390 
 1.35000    3.29                                                  1214400601391 
 1.35245    2.87                                                  1214400601392 
 1.35491    2.57                                                  1214400601393 
 1.35737    2.81                                                  1214400601394 
 1.35983    3.12                                                  1214400601395 
 1.36228    2.83                                                  1214400601396 
 1.36474    3.00                                                  1214400601397 
 1.36720    3.11                                                  1214400601398 
 1.36966    3.09                                                  1214400601399 
 1.37211    2.91                                                  1214400601400 
 1.37457    2.5503                                                1214400601401 
 1.37703    2.23                                                  1214400601402 
 1.37949    2.24                                                  1214400601403 
 1.38194    1.86                                                  1214400601404 
 1.38440    1.95                                                  1214400601405 
 1.38686    1.925                                                 1214400601406 
 1.38833    2.42024                                               1214400601407 
 1.38931    2.59                                                  1214400601408 
 1.39054    2.6583                                                1214400601409 
 1.39177    2.9178                                                1214400601410 
 1.39324    3.61775                                               1214400601411 
 1.39423    4.25346                                               1214400601412 
 1.39570    4.08767                                               1214400601413 
 1.39668    4.23737                                               1214400601414 
 1.39816    3.6074                                                1214400601415 
 1.39914    3.44973                                               1214400601416 
 1.40061    2.81521                                               1214400601417 
 1.40159    2.4528                                                1214400601418 
 1.40307    2.078                                                 1214400601419 
 1.40405    2.2812                                                1214400601420 
 1.40552    2.1698                                                1214400601421 
 1.40651    2.23224                                               1214400601422 
 1.40798    1.764                                                 1214400601423 
 1.40896    2.75                                                  1214400601424 
 1.41044    2.87                                                  1214400601425 
 1.41142    3.016                                                 1214400601426 
 1.41289    2.48                                                  1214400601427 
 1.41387    2.327                                                 1214400601428 
 1.41535    1.964                                                 1214400601429 
 1.41633    1.83                                                  1214400601430 
 1.41878    1.962                                                 1214400601431 
 1.42026    2.28866                                               1214400601432 
 1.42124    2.6237                                                1214400601433 
 1.42271    2.60484                                               1214400601434 
 1.42370    2.9219                                                1214400601435 
 1.42517    2.79                                                  1214400601436 
 1.42615    2.66675                                               1214400601437 
 1.42762    2.4637                                                1214400601438 
 1.42861    2.948                                                 1214400601439 
 1.43008    2.868                                                 1214400601440 
 1.43106    2.894                                                 1214400601441 
 1.43253    2.801                                                 1214400601442 
 1.43352    2.44706                                               1214400601443 
 1.43499    2.39                                                  1214400601444 
 1.43597    2.49037                                               1214400601445 
 1.43744    2.5603                                                1214400601446 
 1.43843    2.78755                                               1214400601447 
 1.43990    2.438                                                 1214400601448 
 1.44088    2.2026                                                1214400601449 
 1.44235    2.7408                                                1214400601450 
 1.44481    2.529                                                 1214400601451 
 1.44579    3.07062                                               1214400601452 
 1.44726    3.37164                                               1214400601453 
 1.44825    3.0015                                                1214400601454 
 1.44972    3.7206                                                1214400601455 
 1.45109    3.38773                                               1214400601456 
 1.45217    3.66213                                               1214400601457 
 1.45315    3.85166                                               1214400601458 
 1.45463    3.968                                                 1214400601459 
 1.45561    4.02                                                  1214400601460 
 1.45708    2.9437                                                1214400601461 
 1.45806    3.85969                                               1214400601462 
 1.45954    3.43474                                               1214400601463 
 1.46052    2.8277                                                1214400601464 
 1.46199    2.9967                                                1214400601465 
 1.46297    3.394                                                 1214400601466 
 1.46444    3.3784                                                1214400601467 
 1.46543    3.18242                                               1214400601468 
 1.46690    4.67903                                               1214400601469 
 1.46788    4.246                                                 1214400601470 
 1.46935    4.551                                                 1214400601471 
 1.47033    4.70082                                               1214400601472 
 1.47181    4.088                                                 1214400601473 
 1.47279    4.0586                                                1214400601474 
 1.47426    4.1802                                                1214400601475 
 1.47524    4.1483                                                1214400601476 
 1.47671    3.6626                                                1214400601477 
 1.47770    4.1318                                                1214400601478 
 1.47917    3.03546                                               1214400601479 
 1.48015    2.86077                                               1214400601480 
 1.48162    2.41046                                               1214400601481 
 1.48260    2.631                                                 1214400601482 
 1.48407    2.1551                                                1214400601483 
 1.48506    2.229                                                 1214400601484 
 1.48653    2.1067                                                1214400601485 
 1.48751    2.07042                                               1214400601486 
ENDDATA           1474          0                                 1214400601487 
ENDSUBENT         1486          0                                 1214400699999 
ENDENTRY             6          0                                 1214499999999 
