ENTRY            12154   19821012                             00001215400000001 
SUBENT        12154001   19821012                             00001215400100001 
BIB                  7          9                                 1215400100002 
INSTITUTE  (1USAORL)                                              1215400100003 
REFERENCE  (J,BAP,3,177(F11),5804)                                1215400100004 
           (W,HARVEY,5803) TABULATED DATA                         1215400100005 
AUTHOR     (J.A.HARVEY,G.G.SLAUGHTER,R.C.BLOCK)                   1215400100006 
TITLE      SPIN STATES FOR RESONANCES IN W183, AG107 AND AG109.   1215400100007 
FACILITY   (CHOPF) FAST CHOPPER                                   1215400100008 
STATUS     (SCSRS)                                                1215400100009 
HISTORY    (760803T) TRANSLATED FROM SCISRS                       1215400100010 
           (821012A) CONVERTED TO REACTION FORMALISM              1215400100011 
ENDBIB               9          0                                 1215400100012 
NOCOMMON             0          0                                 1215400100013 
ENDSUBENT           12          0                                 1215400199999 
SUBENT        12154002   19821012                             00001215400200001 
BIB                  3          3                                 1215400200002 
REACTION   (47-AG-0(N,TOT),,SIG)                                  1215400200003 
SAMPLE     THIN SAMPLE.                                           1215400200004 
COMMENT    RUN 149C.                                              1215400200005 
ENDBIB               3          0                                 1215400200006 
NOCOMMON             0          0                                 1215400200007 
DATA                 2        243                                 1215400200008 
EN         DATA                                                   1215400200009 
EV         B                                                      1215400200010 
  19.3713   113.376                                               1215400200011 
  19.4745    47.3346                                              1215400200012 
  19.5785    38.1115                                              1215400200013 
  19.6833    45.8394                                              1215400200014 
  19.7890    31.1148                                              1215400200015 
  19.8955    31.1183                                              1215400200016 
  20.0029    97.7412                                              1215400200017 
  20.1112    60.0182                                              1215400200018 
  20.2203    40.5960                                              1215400200019 
  20.3304    15.4970                                              1215400200020 
  20.4413    16.4568                                              1215400200021 
  20.5532    46.0547                                              1215400200022 
  20.6660    27.2657                                              1215400200023 
  20.7797    39.7846                                              1215400200024 
  20.8943    33.5062                                              1215400200025 
  21.0099    49.9168                                              1215400200026 
  21.1265    88.7919                                              1215400200027 
  21.2440    34.4462                                              1215400200028 
  21.3625    12.4284                                              1215400200029 
  21.4820    60.2272                                              1215400200030 
  21.6025     1.3717                                              1215400200031 
  21.7241    49.0176                                              1215400200032 
  21.8466    63.9137                                              1215400200033 
  21.9702     5.8989                                              1215400200034 
  22.0949    19.6347                                              1215400200035 
  22.2206    44.5542                                              1215400200036 
  22.3474     7.6619                                              1215400200037 
  22.4753    72.2295                                              1215400200038 
  22.6043    53.6477                                              1215400200039 
  22.7344     2.2879                                              1215400200040 
  22.8656    12.7556                                              1215400200041 
  22.9979    14.5182                                              1215400200042 
  23.1315    65.4338                                              1215400200043 
  23.2661     2.5937                                              1215400200044 
  23.4020    33.3529                                              1215400200045 
  23.5391    70.2680                                              1215400200046 
  23.6773    81.0223                                              1215400200047 
  23.8168    15.2978                                              1215400200048 
  23.9575    96.4230                                              1215400200049 
  24.0995     5.0999                                              1215400200050 
  24.2427   132.114                                               1215400200051 
  24.3872    50.1571                                              1215400200052 
  24.5331    90.4113                                              1215400200053 
  24.6802    38.9503                                              1215400200054 
  24.8286    76.7496                                              1215400200055 
  24.9784   118.574                                               1215400200056 
  25.1296    26.3049                                              1215400200057 
  25.2821    41.4365                                              1215400200058 
  25.4360     7.7432                                              1215400200059 
  25.5914     9.8330                                              1215400200060 
  25.7481    60.9787                                              1215400200061 
  25.9063    15.0231                                              1215400200062 
  26.0660    17.7302                                              1215400200063 
  26.2272     8.4998                                              1215400200064 
  26.3898    18.5868                                              1215400200065 
  26.5540    19.4923                                              1215400200066 
  26.7197    67.3030                                              1215400200067 
  26.8869    52.4909                                              1215400200068 
  27.0558    10.1401                                              1215400200069 
  27.2262    24.6184                                              1215400200070 
  27.3983    23.1537                                              1215400200071 
  27.5719    28.5503                                              1215400200072 
  27.7473    62.7973                                              1215400200073 
  27.9243    10.9818                                              1215400200074 
  28.1030    18.4804                                              1215400200075 
  28.2834    24.4822                                              1215400200076 
  28.4656     3.0662                                              1215400200077 
  28.6496    15.0637                                              1215400200078 
  28.8353    74.7730                                              1215400200079 
  29.0228    38.9205                                              1215400200080 
  29.2122    33.5416                                              1215400200081 
  29.4035     0.0845                                              1215400200082 
  29.5966    65.1542                                              1215400200083 
  29.7916    86.6285                                              1215400200084 
  29.9886    56.3155                                              1215400200085 
  30.1875   130.763                                               1215400200086 
  30.3884   217.313                                               1215400200087 
  30.5914   491.246                                               1215400200088 
  30.7963   567.864                                               1215400200089 
  31.0034   345.6506                                              1215400200090 
  31.2125    84.0340                                              1215400200091 
  31.4238    31.6570                                              1215400200092 
  31.6372    31.6748                                              1215400200093 
  31.8527   106.637                                               1215400200094 
  32.0705    71.1331                                              1215400200095 
  32.2906    32.6965                                              1215400200096 
  32.5129    48.8862                                              1215400200097 
  32.7375    11.5653                                              1215400200098 
  32.9644    25.7542                                              1215400200099 
  33.1938    40.6910                                              1215400200100 
  33.4255    66.5443                                              1215400200101 
  33.6596    21.8094                                              1215400200102 
  33.8963    50.0841                                              1215400200103 
  34.1354    74.3264                                              1215400200104 
  34.3771    23.1286                                              1215400200105 
  34.6213    50.2037                                              1215400200106 
  34.8681    42.2726                                              1215400200107 
  35.1177    25.6271                                              1215400200108 
  35.3698    30.0143                                              1215400200109 
  35.6248    84.7558                                              1215400200110 
  35.8824    19.6677                                              1215400200111 
  36.1429    65.1714                                              1215400200112 
  36.4063    89.8675                                              1215400200113 
  36.6725    68.8993                                              1215400200114 
  36.9416   105.910                                               1215400200115 
  37.2138    34.9354                                              1215400200116 
  37.4889    70.7712                                              1215400200117 
  37.7671     2.2830                                              1215400200118 
  38.0485     2.2010                                              1215400200119 
  38.3329    40.0572                                              1215400200120 
  38.6206   122.649                                               1215400200121 
  38.9115    49.2729                                              1215400200122 
  39.2058    32.1567                                              1215400200123 
  39.5033    27.8707                                              1215400200124 
  39.8043    64.5626                                              1215400200125 
  40.1087    38.6527                                              1215400200126 
  40.4167   232.963                                               1215400200127 
  40.7282   203.723                                               1215400200128 
  41.0433   123.853                                               1215400200129 
  41.3621   112.947                                               1215400200130 
  41.6846   219.244                                               1215400200131 
  42.0109   202.679                                               1215400200132 
  42.3410    72.0211                                              1215400200133 
  42.6751   123.645                                               1215400200134 
  43.0131    55.9771                                              1215400200135 
  43.3551    37.2089                                              1215400200136 
  43.7013   108.392                                               1215400200137 
  44.0516    36.4898                                              1215400200138 
  44.4061    58.6349                                              1215400200139 
  44.7650    60.8314                                              1215400200140 
  45.1282    44.0609                                              1215400200141 
  45.4958    84.5716                                              1215400200142 
  45.8680    22.0615                                              1215400200143 
  46.2447    13.3807                                              1215400200144 
  46.6261    78.8301                                              1215400200145 
  47.0122    64.0588                                              1215400200146 
  47.4032    62.3951                                              1215400200147 
  47.7990    61.0672                                              1215400200148 
  48.1999    58.2803                                              1215400200149 
  48.6058    53.6859                                              1215400200150 
  49.0168    57.2631                                              1215400200151 
  49.4331    45.2159                                              1215400200152 
  49.8547    47.6435                                              1215400200153 
  50.2817    52.2638                                              1215400200154 
  50.7142    60.2471                                              1215400200155 
  51.1524   165.586                                               1215400200156 
  51.5962   467.121                                               1215400200157 
  52.0458   520.418                                               1215400200158 
  52.5014   279.709                                               1215400200159 
  52.9629   107.368                                               1215400200160 
  53.4306    37.6230                                              1215400200161 
  53.9045    28.8793                                              1215400200162 
  54.3847    25.4316                                              1215400200163 
  54.8714    53.3386                                              1215400200164 
  55.3646   107.799                                               1215400200165 
  55.8645   188.972                                               1215400200166 
  56.3712   312.964                                               1215400200167 
  56.8848   116.527                                               1215400200168 
  57.4055    68.1395                                              1215400200169 
  57.9334    50.3958                                              1215400200170 
  58.4685    51.1942                                              1215400200171 
  59.0112    91.5103                                              1215400200172 
  59.5614    31.7189                                              1215400200173 
  60.1193   113.939                                               1215400200174 
  60.6852    25.2699                                              1215400200175 
  61.2590    54.4102                                              1215400200176 
  61.8411    84.4444                                              1215400200177 
  62.4314    41.2812                                              1215400200178 
  63.0303    71.1414                                              1215400200179 
  63.6378    51.5340                                              1215400200180 
  64.2541    86.6636                                              1215400200181 
  64.8795    46.7972                                              1215400200182 
  65.5140    35.1721                                              1215400200183 
  66.1579    39.2471                                              1215400200184 
  66.8113    63.0646                                              1215400200185 
  67.4744    20.8755                                              1215400200186 
  68.1475    22.7975                                              1215400200187 
  68.8306    58.0648                                              1215400200188 
  69.5241    92.8810                                              1215400200189 
  70.2282    91.7027                                              1215400200190 
  70.9430   172.429                                               1215400200191 
  71.6687   337.417                                               1215400200192 
  72.4057   213.262                                               1215400200193 
  73.1541    92.6608                                              1215400200194 
  73.9141    69.0583                                              1215400200195 
  74.6860    41.4977                                              1215400200196 
  75.4701    57.0922                                              1215400200197 
  76.2666    27.2685                                              1215400200198 
  77.0758    29.8361                                              1215400200199 
  77.8980    15.4314                                              1215400200200 
  78.7333    75.4639                                              1215400200201 
  79.5822    41.7228                                              1215400200202 
  80.4449    38.0643                                              1215400200203 
  81.3217    63.4312                                              1215400200204 
  82.2129    74.9445                                              1215400200205 
  83.1188    42.3853                                              1215400200206 
  84.0397    72.3761                                              1215400200207 
  84.9761    28.8519                                              1215400200208 
  85.9282    37.3633                                              1215400200209 
  86.8964    92.2627                                              1215400200210 
  87.8811    89.9524                                              1215400200211 
  88.8826    79.4123                                              1215400200212 
  89.9013    92.4894                                              1215400200213 
  90.9376    49.8042                                              1215400200214 
  91.9919    60.8614                                              1215400200215 
  93.0647    38.8897                                              1215400200216 
  94.1564    98.6310                                              1215400200217 
  95.2673    74.8030                                              1215400200218 
  96.3981    58.0087                                              1215400200219 
  97.5491    40.7706                                              1215400200220 
  98.7209    91.4423                                              1215400200221 
  99.9139    11.9634                                              1215400200222 
 101.128     24.2641                                              1215400200223 
 102.365    104.447                                               1215400200224 
 103.625     39.7864                                              1215400200225 
 104.908     33.9280                                              1215400200226 
 106.216     62.5350                                              1215400200227 
 107.547     85.0179                                              1215400200228 
 108.905     68.8269                                              1215400200229 
 110.287     14.2113                                              1215400200230 
 111.697     27.9172                                              1215400200231 
 113.133     76.6746                                              1215400200232 
 114.598     87.5940                                              1215400200233 
 116.091     76.1042                                              1215400200234 
 117.614     47.1742                                              1215400200235 
 119.166     76.3449                                              1215400200236 
 120.750     59.8794                                              1215400200237 
 122.365      0.4938                                              1215400200238 
 124.013     30.8769                                              1215400200239 
 125.695     55.5595                                              1215400200240 
 127.411     85.4160                                              1215400200241 
 129.162     31.6331                                              1215400200242 
 130.950     60.3015                                              1215400200243 
 132.775    117.956                                               1215400200244 
 134.638    229.297                                               1215400200245 
 136.541    219.364                                               1215400200246 
 138.485    115.327                                               1215400200247 
 140.470     83.0866                                              1215400200248 
 142.499     53.1381                                              1215400200249 
 144.571     80.0595                                              1215400200250 
 146.690     71.0262                                              1215400200251 
 148.855     98.9275                                              1215400200252 
 151.068     56.9624                                              1215400200253 
ENDDATA            245          0                                 1215400200254 
ENDSUBENT          253          0                                 1215400299999 
SUBENT        12154003   19821012                             00001215400300001 
BIB                  3          3                                 1215400300002 
REACTION   (47-AG-0(N,TOT),,SIG)                                  1215400300003 
SAMPLE     THIN SAMPLE                                            1215400300004 
COMMENT    RUN 146B.                                              1215400300005 
ENDBIB               3          0                                 1215400300006 
NOCOMMON             0          0                                 1215400300007 
DATA                 2        256                                 1215400300008 
EN         DATA                                                   1215400300009 
EV         B                                                      1215400300010 
  73.7964     5.5507                                              1215400300011 
  74.1948     6.6439                                              1215400300012 
  74.5963     7.9297                                              1215400300013 
  75.0012     3.9403                                              1215400300014 
  75.4094     2.7117                                              1215400300015 
  75.8209     3.9294                                              1215400300016 
  76.2358     3.8985                                              1215400300017 
  76.6541     3.1601                                              1215400300018 
  77.0758     4.9066                                              1215400300019 
  77.5011     3.9540                                              1215400300020 
  77.9299     5.0962                                              1215400300021 
  78.3622     4.1206                                              1215400300022 
  78.7982     2.7665                                              1215400300023 
  79.2378     4.1389                                              1215400300024 
  79.6810     3.2779                                              1215400300025 
  80.1281     2.3823                                              1215400300026 
  80.5788     6.9490                                              1215400300027 
  81.0335     3.4173                                              1215400300028 
  81.4919     5.1246                                              1215400300029 
  81.9543     0.0579                                              1215400300030 
  82.4206     3.3250                                              1215400300031 
  82.8909     5.3981                                              1215400300032 
  83.3652     3.8342                                              1215400300033 
  83.8437     5.1501                                              1215400300034 
  84.3262     4.1768                                              1215400300035 
  84.8129     6.8152                                              1215400300036 
  85.3039     2.3940                                              1215400300037 
  85.7991     5.2182                                              1215400300038 
  86.2987     6.1890                                              1215400300039 
  86.8026    18.8061                                              1215400300040 
  87.3110    29.2940                                              1215400300041 
  87.8238    33.8466                                              1215400300042 
  88.3412    31.4135                                              1215400300043 
  88.8631    16.1300                                              1215400300044 
  89.3897     8.2235                                              1215400300045 
  89.9210     4.5211                                              1215400300046 
  90.4571     4.6354                                              1215400300047 
  90.9979     4.8953                                              1215400300048 
  91.5436     5.2762                                              1215400300049 
  92.0943     3.3152                                              1215400300050 
  92.6499     5.7614                                              1215400300051 
  93.2106     4.0476                                              1215400300052 
  93.7763     6.7352                                              1215400300053 
  94.3473     2.0072                                              1215400300054 
  94.9234     1.4619                                              1215400300055 
  95.5049     1.9724                                              1215400300056 
  96.0917     1.3131                                              1215400300057 
  96.6839     3.5717                                              1215400300058 
  97.2817     1.5783                                              1215400300059 
  97.8850     1.8609                                              1215400300060 
  98.4939     3.7578                                              1215400300061 
  99.1085     4.3145                                              1215400300062 
  99.7289     2.2965                                              1215400300063 
 100.355      2.5838                                              1215400300064 
 100.987      4.2373                                              1215400300065 
 101.625      1.5214                                              1215400300066 
 102.269      6.5154                                              1215400300067 
 102.920      5.1129                                              1215400300068 
 103.576      6.9186                                              1215400300069 
 104.239      4.1722                                              1215400300070 
 104.908      7.0354                                              1215400300071 
 105.584      0.0991                                              1215400300072 
 106.266      7.0205                                              1215400300073 
 106.955      7.8572                                              1215400300074 
 107.651      3.0037                                              1215400300075 
 108.353      4.3013                                              1215400300076 
 109.063      6.3942                                              1215400300077 
 109.779      7.5035                                              1215400300078 
 110.503      4.8470                                              1215400300079 
 111.233      3.7138                                              1215400300080 
 111.971      5.2533                                              1215400300081 
 112.716      4.6008                                              1215400300082 
 113.469      3.1795                                              1215400300083 
 114.229      4.3465                                              1215400300084 
 114.997      1.9735                                              1215400300085 
 115.773      8.6863                                              1215400300086 
 116.556      4.3235                                              1215400300087 
 117.348      4.1008                                              1215400300088 
 118.148      3.7974                                              1215400300089 
 118.955      5.1422                                              1215400300090 
 119.772      1.4830                                              1215400300091 
 120.596      1.8661                                              1215400300092 
 121.429      1.3342                                              1215400300093 
 122.271      3.6114                                              1215400300094 
 123.122      0.4339                                              1215400300095 
 123.981      0.0126                                              1215400300096 
 124.850      1.9433                                              1215400300097 
 125.727      1.2904                                              1215400300098 
 126.614      0.4572                                              1215400300099 
 127.511      5.5152                                              1215400300100 
 128.417      4.7183                                              1215400300101 
 129.332      2.6638                                              1215400300102 
 130.258      6.6356                                              1215400300103 
 131.193      7.8543                                              1215400300104 
 132.139     18.0603                                              1215400300105 
 133.095     38.8623                                              1215400300106 
 134.061     58.0975                                              1215400300107 
 135.037     60.4550                                              1215400300108 
 136.025     45.5682                                              1215400300109 
 137.023     27.0262                                              1215400300110 
 138.033     13.7911                                              1215400300111 
 139.053     11.0013                                              1215400300112 
 140.085     16.8999                                              1215400300113 
 141.129     10.4418                                              1215400300114 
 142.184     11.4388                                              1215400300115 
 143.251     13.5017                                              1215400300116 
 144.330     14.4220                                              1215400300117 
 145.421     14.0032                                              1215400300118 
 146.525     16.4316                                              1215400300119 
 147.641      9.7597                                              1215400300120 
 148.771      6.1173                                              1215400300121 
 149.913      5.4065                                              1215400300122 
 151.068      2.9116                                              1215400300123 
 152.237      4.7463                                              1215400300124 
 153.419      5.3188                                              1215400300125 
 154.616      4.6811                                              1215400300126 
 155.826      4.5230                                              1215400300127 
 157.051      0.0278                                              1215400300128 
 158.290      1.5060                                              1215400300129 
 159.543      3.6173                                              1215400300130 
 160.812      5.4472                                              1215400300131 
 162.096      0.8023                                              1215400300132 
 163.395      4.2761                                              1215400300133 
 164.711      5.8858                                              1215400300134 
 166.041      3.0789                                              1215400300135 
 167.389      7.0604                                              1215400300136 
 168.752      6.6976                                              1215400300137 
 170.133     11.0412                                              1215400300138 
 171.530     19.3165                                              1215400300139 
 172.945     27.2225                                              1215400300140 
 174.377     33.0798                                              1215400300141 
 175.827     30.8094                                              1215400300142 
 177.295     16.9874                                              1215400300143 
 178.782      9.7493                                              1215400300144 
 180.288      6.4893                                              1215400300145 
 181.812      4.3628                                              1215400300146 
 183.356      2.9256                                              1215400300147 
 184.920      5.4523                                              1215400300148 
 186.504      5.1833                                              1215400300149 
 188.108      0.0879                                              1215400300150 
 189.734      4.5119                                              1215400300151 
 191.380      5.5603                                              1215400300152 
 193.048      3.3128                                              1215400300153 
 194.737      3.8656                                              1215400300154 
 196.449      1.2013                                              1215400300155 
 198.184      6.5756                                              1215400300156 
 199.942      8.9358                                              1215400300157 
 201.723     11.4595                                              1215400300158 
 203.528     13.7612                                              1215400300159 
 205.357     17.6125                                              1215400300160 
 207.212     18.2610                                              1215400300161 
 209.091     17.4077                                              1215400300162 
 210.996     19.2833                                              1215400300163 
 212.928     13.9282                                              1215400300164 
 214.886     11.0181                                              1215400300165 
 216.871      5.3906                                              1215400300166 
 218.883      6.7107                                              1215400300167 
 220.924      4.9320                                              1215400300168 
 222.994      1.3626                                              1215400300169 
 225.093      5.7134                                              1215400300170 
 227.221      0.9425                                              1215400300171 
 229.380      1.3338                                              1215400300172 
 231.570      6.2191                                              1215400300173 
 233.791      3.5904                                              1215400300174 
 236.044      0.4888                                              1215400300175 
 238.331      1.8943                                              1215400300176 
 240.650      3.8044                                              1215400300177 
 243.004      5.6144                                              1215400300178 
 245.392      6.0874                                              1215400300179 
 247.815      7.5144                                              1215400300180 
 250.275      9.0360                                              1215400300181 
 252.772     12.2011                                              1215400300182 
 255.306     16.5339                                              1215400300183 
 257.878     10.7188                                              1215400300184 
 260.489      4.7858                                              1215400300185 
 263.141      3.1904                                              1215400300186 
 265.833      6.4265                                              1215400300187 
 268.566      6.6045                                              1215400300188 
 271.342      5.9394                                              1215400300189 
 274.161      4.9646                                              1215400300190 
 277.024      2.6786                                              1215400300191 
 279.933      2.8542                                              1215400300192 
 282.887      2.3871                                              1215400300193 
 285.889      5.8099                                              1215400300194 
 288.938      3.6158                                              1215400300195 
 292.037      6.7083                                              1215400300196 
 295.185      8.1997                                              1215400300197 
 298.385      9.0491                                              1215400300198 
 301.637      4.9124                                              1215400300199 
 304.943      8.0130                                              1215400300200 
 308.303     10.8615                                              1215400300201 
 311.719     20.1220                                              1215400300202 
 315.192     29.4427                                              1215400300203 
 318.724     33.7947                                              1215400300204 
 322.315     28.5530                                              1215400300205 
 325.967     19.9964                                              1215400300206 
 329.682     10.4449                                              1215400300207 
 333.461      5.9944                                              1215400300208 
 337.305      2.7914                                              1215400300209 
 341.215      2.6115                                              1215400300210 
 345.194      4.8028                                              1215400300211 
 349.244      3.6593                                              1215400300212 
 353.364      5.0619                                              1215400300213 
 357.559      4.3905                                              1215400300214 
 361.828      8.1930                                              1215400300215 
 366.174     11.4677                                              1215400300216 
 370.599      5.6302                                              1215400300217 
 375.105      5.9586                                              1215400300218 
 379.693      4.6737                                              1215400300219 
 384.366      6.8609                                              1215400300220 
 389.126      8.9551                                              1215400300221 
 393.975     13.3408                                              1215400300222 
 398.915     12.5544                                              1215400300223 
 403.949     14.2021                                              1215400300224 
 409.078     15.9961                                              1215400300225 
 414.306     11.7928                                              1215400300226 
 419.635      9.1652                                              1215400300227 
 425.067      6.4798                                              1215400300228 
 430.605      5.6983                                              1215400300229 
 436.253      6.3478                                              1215400300230 
 442.012      6.9024                                              1215400300231 
 447.885      8.3143                                              1215400300232 
 453.877      6.4630                                              1215400300233 
 459.990     11.9103                                              1215400300234 
 466.227     14.8195                                              1215400300235 
 472.592     17.0265                                              1215400300236 
 479.088     17.3144                                              1215400300237 
 485.719     11.8921                                              1215400300238 
 492.488     11.6582                                              1215400300239 
 499.400     11.1248                                              1215400300240 
 506.459     13.5601                                              1215400300241 
 513.668     13.6852                                              1215400300242 
 521.032     13.9834                                              1215400300243 
 528.556      9.3488                                              1215400300244 
 536.244      7.2412                                              1215400300245 
 544.101      8.9633                                              1215400300246 
 552.132     10.2310                                              1215400300247 
 560.342     18.9437                                              1215400300248 
 568.737     21.1739                                              1215400300249 
 577.321     22.6353                                              1215400300250 
 586.102     17.0545                                              1215400300251 
 595.084     14.0803                                              1215400300252 
 604.274     13.7961                                              1215400300253 
 613.679     11.2136                                              1215400300254 
 623.306     11.9846                                              1215400300255 
 633.160     10.0860                                              1215400300256 
 643.250      6.7630                                              1215400300257 
 653.583      3.7848                                              1215400300258 
 664.167      9.3939                                              1215400300259 
 675.011      6.9940                                              1215400300260 
 686.122      8.2644                                              1215400300261 
 697.510      9.8733                                              1215400300262 
 709.183      7.0688                                              1215400300263 
 721.152      4.8322                                              1215400300264 
 733.427      1.3466                                              1215400300265 
 746.018      9.5003                                              1215400300266 
ENDDATA            258          0                                 1215400300267 
ENDSUBENT          266          0                                 1215400399999 
SUBENT        12154004   19821012                             00001215400400001 
BIB                  3          3                                 1215400400002 
REACTION   (74-W-0(N,TOT),,SIG)                                   1215400400003 
SAMPLE     THICK SAMPLE                                           1215400400004 
COMMENT    RUN 128C                                               1215400400005 
ENDBIB               3          0                                 1215400400006 
NOCOMMON             0          0                                 1215400400007 
DATA                 2        248                                 1215400400008 
EN         DATA                                                   1215400400009 
EV         B                                                      1215400400010 
  18.1114   580.761                                               1215400400011 
  18.2076   479.718                                               1215400400012 
  18.3046   479.119                                               1215400400013 
  18.4023   573.602                                               1215400400014 
  18.5009   779.032                                               1215400400015 
  18.6002   571.304                                               1215400400016 
  18.7004   533.908                                               1215400400017 
  18.8013   384.335                                               1215400400018 
  18.9031   717.917                                               1215400400019 
  19.0057   473.094                                               1215400400020 
  19.1091   486.421                                               1215400400021 
  19.2134  1040.63                                                1215400400022 
  19.3185   541.121                                               1215400400023 
  19.4245   386.523                                               1215400400024 
  19.5314   482.883                                               1215400400025 
  19.6391   757.200                                               1215400400026 
  19.7478   590.067                                               1215400400027 
  19.8573   445.143                                               1215400400028 
  19.9678   602.126                                               1215400400029 
  20.0792   668.740                                               1215400400030 
  20.1916   462.431                                               1215400400031 
  20.3048   859.013                                               1215400400032 
  20.4191   574.366                                               1215400400033 
  20.5343   587.212                                               1215400400034 
  20.6504   469.121                                               1215400400035 
  20.7676   539.011                                               1215400400036 
  20.8858   553.909                                               1215400400037 
  21.0049   798.279                                               1215400400038 
  21.1251   479.171                                               1215400400039 
  21.2464   479.438                                               1215400400040 
  21.3687   426.157                                               1215400400041 
  21.4920  1038.96                                                1215400400042 
  21.6164   413.266                                               1215400400043 
  21.7419   384.564                                               1215400400044 
  21.8685   267.226                                               1215400400045 
  21.9962   267.293                                               1215400400046 
  22.1250   227.298                                               1215400400047 
  22.2550   171.834                                               1215400400048 
  22.3861   155.277                                               1215400400049 
  22.5183   186.767                                               1215400400050 
  22.6518   189.317                                               1215400400051 
  22.7864   138.592                                               1215400400052 
  22.9223   127.107                                               1215400400053 
  23.0593   147.190                                               1215400400054 
  23.1976   119.641                                               1215400400055 
  23.3371   119.645                                               1215400400056 
  23.4779   128.410                                               1215400400057 
  23.6200   114.646                                               1215400400058 
  23.7634   110.127                                               1215400400059 
  23.9080   104.192                                               1215400400060 
  24.0540    85.8785                                              1215400400061 
  24.2014    87.8857                                              1215400400062 
  24.3501    92.4384                                              1215400400063 
  24.5002    86.4275                                              1215400400064 
  24.6516    63.6088                                              1215400400065 
  24.8045    92.7728                                              1215400400066 
  24.9588    80.6158                                              1215400400067 
  25.1146    75.9588                                              1215400400068 
  25.2718    70.2593                                              1215400400069 
  25.4305    64.9779                                              1215400400070 
  25.5907    82.2595                                              1215400400071 
  25.7524    70.9855                                              1215400400072 
  25.9156    69.8391                                              1215400400073 
  26.0804    55.1485                                              1215400400074 
  26.2468    80.9575                                              1215400400075 
  26.4148    67.8491                                              1215400400076 
  26.5844    98.3623                                              1215400400077 
  26.7556   118.513                                               1215400400078 
  26.9285   211.186                                               1215400400079 
  27.1031   432.344                                               1215400400080 
  27.2794   399.615                                               1215400400081 
  27.4574   305.919                                               1215400400082 
  27.6371   185.996                                               1215400400083 
  27.8187   103.325                                               1215400400084 
  28.0020    82.8677                                              1215400400085 
  28.1871    63.9347                                              1215400400086 
  28.3741    57.7617                                              1215400400087 
  28.5629    43.6244                                              1215400400088 
  28.7537    46.0407                                              1215400400089 
  28.9463    48.6626                                              1215400400090 
  29.1409    54.9745                                              1215400400091 
  29.3375    42.6928                                              1215400400092 
  29.5361    52.5194                                              1215400400093 
  29.7366    36.7043                                              1215400400094 
  29.9393    50.8173                                              1215400400095 
  30.1440    32.9627                                              1215400400096 
  30.3508    32.4956                                              1215400400097 
  30.5598    40.8994                                              1215400400098 
  30.7709    36.6113                                              1215400400099 
  30.9842    38.0847                                              1215400400100 
  31.1998    34.7946                                              1215400400101 
  31.4175    29.9571                                              1215400400102 
  31.6376    26.8677                                              1215400400103 
  31.8600    35.4151                                              1215400400104 
  32.0848    36.9054                                              1215400400105 
  32.3120    32.9407                                              1215400400106 
  32.5415    30.0227                                              1215400400107 
  32.7735    35.9692                                              1215400400108 
  33.0081    22.8317                                              1215400400109 
  33.2451    28.9075                                              1215400400110 
  33.4847    25.9264                                              1215400400111 
  33.7269    23.5432                                              1215400400112 
  33.9718    24.7523                                              1215400400113 
  34.2193    31.5041                                              1215400400114 
  34.4695    28.9075                                              1215400400115 
  34.7225    27.5095                                              1215400400116 
  34.9783    33.0535                                              1215400400117 
  35.2369    18.9412                                              1215400400118 
  35.4984    38.7277                                              1215400400119 
  35.7628    28.9299                                              1215400400120 
  36.0302    15.9072                                              1215400400121 
  36.3006    21.6027                                              1215400400122 
  36.5740    16.6062                                              1215400400123 
  36.8506    32.6227                                              1215400400124 
  37.1303    30.2098                                              1215400400125 
  37.4132    17.3370                                              1215400400126 
  37.6993    22.7196                                              1215400400127 
  37.9888    32.1866                                              1215400400128 
  38.2815    15.4441                                              1215400400129 
  38.5777    24.4746                                              1215400400130 
  38.8774    12.8832                                              1215400400131 
  39.1805    13.4944                                              1215400400132 
  39.4872    21.1160                                              1215400400133 
  39.7975    25.8812                                              1215400400134 
  40.1115     6.4368                                              1215400400135 
  40.4292    34.2617                                              1215400400136 
  40.7507    20.1009                                              1215400400137 
  41.0761    42.1643                                              1215400400138 
  41.4053    34.5857                                              1215400400139 
  41.7386    18.7842                                              1215400400140 
  42.0758    13.5156                                              1215400400141 
  42.4172    24.4166                                              1215400400142 
  42.7628    20.0782                                              1215400400143 
  43.1126    22.4046                                              1215400400144 
  43.4667    22.4003                                              1215400400145 
  43.8252    21.4815                                              1215400400146 
  44.1881    19.4078                                              1215400400147 
  44.5556    32.3367                                              1215400400148 
  44.9277    40.4162                                              1215400400149 
  45.3044    62.1928                                              1215400400150 
  45.6859    99.6912                                              1215400400151 
  46.0723   181.223                                               1215400400152 
  46.4635   332.197                                               1215400400153 
  46.8598   335.546                                               1215400400154 
  47.2612   197.210                                               1215400400155 
  47.6677   178.865                                               1215400400156 
  48.0795   202.334                                               1215400400157 
  48.4967   161.048                                               1215400400158 
  48.9193    71.2442                                              1215400400159 
  49.3475    40.1030                                              1215400400160 
  49.7813    34.7640                                              1215400400161 
  50.2209    21.0967                                              1215400400162 
  50.6663    30.9504                                              1215400400163 
  51.1177    21.1083                                              1215400400164 
  51.5751    25.2277                                              1215400400165 
  52.0387    19.7518                                              1215400400166 
  52.5086    19.0948                                              1215400400167 
  52.9849    23.5387                                              1215400400168 
  53.4676    17.4341                                              1215400400169 
  53.9570    10.3626                                              1215400400170 
  54.4532    17.0044                                              1215400400171 
  54.9562    16.3862                                              1215400400172 
  55.4663    24.8974                                              1215400400173 
  55.9834     8.1842                                              1215400400174 
  56.5079     9.8214                                              1215400400175 
  57.0397    15.3536                                              1215400400176 
  57.5791    19.7703                                              1215400400177 
  58.1261     9.2909                                              1215400400178 
  58.6810    13.6922                                              1215400400179 
  59.2439    18.0873                                              1215400400180 
  59.8149     7.1569                                              1215400400181 
  60.3943    13.1741                                              1215400400182 
  60.9820    14.1419                                              1215400400183 
  61.5784    22.9278                                              1215400400184 
  62.1836     9.5193                                              1215400400185 
  62.7978    14.5813                                              1215400400186 
  63.4211    21.5760                                              1215400400187 
  64.0537    14.0069                                              1215400400188 
  64.6958    18.2679                                              1215400400189 
  65.3477    17.4469                                              1215400400190 
  66.0094    16.7117                                              1215400400191 
  66.6813    12.5937                                              1215400400192 
  67.3634    17.2236                                              1215400400193 
  68.0561    17.1305                                              1215400400194 
  68.7595    14.8897                                              1215400400195 
  69.4739    20.0233                                              1215400400196 
  70.1995     3.3157                                              1215400400197 
  70.9365     8.0925                                              1215400400198 
  71.6852    13.5221                                              1215400400199 
  72.4457     2.6373                                              1215400400200 
  73.2185    11.6474                                              1215400400201 
  74.0037    13.8011                                              1215400400202 
  74.8015    10.2569                                              1215400400203 
  75.6124    10.8942                                              1215400400204 
  76.4365    14.8172                                              1215400400205 
  77.2742     7.5559                                              1215400400206 
  78.1257    16.1444                                              1215400400207 
  78.9913    11.3220                                              1215400400208 
  79.8714     4.8668                                              1215400400209 
  80.7663     4.8638                                              1215400400210 
  81.6784    12.4760                                              1215400400211 
  82.6019     5.2762                                              1215400400212 
  83.5432     6.5280                                              1215400400213 
  84.5007     7.2970                                              1215400400214 
  85.4748     2.6986                                              1215400400215 
  86.4658     8.9117                                              1215400400216 
  87.4741    13.9251                                              1215400400217 
  88.5002     7.9780                                              1215400400218 
  89.5444     4.0287                                              1215400400219 
  90.6073     7.3293                                              1215400400220 
  91.6891    14.8164                                              1215400400221 
  92.7905    10.2817                                              1215400400222 
  93.9118    11.0159                                              1215400400223 
  95.0536     7.5897                                              1215400400224 
  96.2163    11.3489                                              1215400400225 
  97.4005     6.7877                                              1215400400226 
  98.6067     8.0890                                              1215400400227 
  99.8354    28.6340                                              1215400400228 
 101.087     61.4607                                              1215400400229 
 102.362     73.2307                                              1215400400230 
 103.662     43.7528                                              1215400400231 
 104.987     21.5813                                              1215400400232 
 106.337     21.7458                                              1215400400233 
 107.714      1.4296                                              1215400400234 
 109.117      5.4757                                              1215400400235 
 110.548      7.8781                                              1215400400236 
 112.008     22.6876                                              1215400400237 
 113.496     64.8168                                              1215400400238 
 115.014    147.801                                               1215400400239 
 116.563    112.797                                               1215400400240 
 118.144     47.6917                                              1215400400241 
 119.757     33.2763                                              1215400400242 
 121.403     10.5497                                              1215400400243 
 123.083      4.4895                                              1215400400244 
 124.799     16.0292                                              1215400400245 
 126.550      2.3904                                              1215400400246 
 128.339      3.2475                                              1215400400247 
 130.166      7.5715                                              1215400400248 
 132.032      1.2914                                              1215400400249 
 133.939      7.0716                                              1215400400250 
 135.887      3.9732                                              1215400400251 
 137.878      8.7193                                              1215400400252 
 139.913     11.3415                                              1215400400253 
 141.993     12.9495                                              1215400400254 
 144.120      8.6309                                              1215400400255 
 146.296     20.9738                                              1215400400256 
 148.521      3.3392                                              1215400400257 
 150.797     16.0265                                              1215400400258 
ENDDATA            250          0                                 1215400400259 
ENDSUBENT          258          0                                 1215400499999 
SUBENT        12154005   19821012                             00001215400500001 
BIB                  3          3                                 1215400500002 
REACTION   (74-W-0(N,TOT),,SIG)                                   1215400500003 
SAMPLE     THIN SAMPLE                                            1215400500004 
COMMENT    RUN 125C                                               1215400500005 
ENDBIB               3          0                                 1215400500006 
NOCOMMON             0          0                                 1215400500007 
DATA                 2        248                                 1215400500008 
EN         DATA                                                   1215400500009 
EV         B                                                      1215400500010 
  18.1114  1772.52                                                1215400500011 
  18.2076  2043.82                                                1215400500012 
  18.3046  2800.84                                                1215400500013 
  18.4023  3477.53                                                1215400500014 
  18.5009  5070.52                                                1215400500015 
  18.6002  4564.10                                                1215400500016 
  18.7004  4675.03                                                1215400500017 
  18.8013  8969.83                                                1215400500018 
  18.9031  5664.38                                                1215400500019 
  19.0057  7263.42                                                1215400500020 
  19.1091  5025.13                                                1215400500021 
  19.2134  5375.79                                                1215400500022 
  19.3185  5950.52                                                1215400500023 
  19.4245  3968.41                                                1215400500024 
  19.5314  3456.50                                                1215400500025 
  19.6391  2434.29                                                1215400500026 
  19.7478  2031.62                                                1215400500027 
  19.8573  1706.65                                                1215400500028 
  19.9678  1525.03                                                1215400500029 
  20.0792  1206.40                                                1215400500030 
  20.1916   941.576                                               1215400500031 
  20.3048   951.189                                               1215400500032 
  20.4191   898.194                                               1215400500033 
  20.5343   895.366                                               1215400500034 
  20.6504   631.943                                               1215400500035 
  20.7676   803.365                                               1215400500036 
  20.8858  1038.02                                                1215400500037 
  21.0049  1489.79                                                1215400500038 
  21.1251  2640.20                                                1215400500039 
  21.2464  3366.11                                                1215400500040 
  21.3687  2479.62                                                1215400500041 
  21.4920  1062.55                                                1215400500042 
  21.6164   718.815                                               1215400500043 
  21.7419   527.172                                               1215400500044 
  21.8685   463.831                                               1215400500045 
  21.9962   460.290                                               1215400500046 
  22.1250   326.990                                               1215400500047 
  22.2550   330.325                                               1215400500048 
  22.3861   269.284                                               1215400500049 
  22.5183   300.286                                               1215400500050 
  22.6518   312.588                                               1215400500051 
  22.7864   374.385                                               1215400500052 
  22.9223   237.600                                               1215400500053 
  23.0593   280.806                                               1215400500054 
  23.1976   314.383                                               1215400500055 
  23.3371   217.095                                               1215400500056 
  23.4779   227.502                                               1215400500057 
  23.6200   127.959                                               1215400500058 
  23.7634   331.213                                               1215400500059 
  23.9080   207.232                                               1215400500060 
  24.0540   226.580                                               1215400500061 
  24.2014   246.386                                               1215400500062 
  24.3501   275.321                                               1215400500063 
  24.5002   175.511                                               1215400500064 
  24.6516   184.193                                               1215400500065 
  24.8045   253.550                                               1215400500066 
  24.9588   226.176                                               1215400500067 
  25.1146   279.578                                               1215400500068 
  25.2718   178.240                                               1215400500069 
  25.4305   125.612                                               1215400500070 
  25.5907   242.595                                               1215400500071 
  25.7524   113.109                                               1215400500072 
  25.9156   110.844                                               1215400500073 
  26.0804   138.001                                               1215400500074 
  26.2468   208.314                                               1215400500075 
  26.4148   202.878                                               1215400500076 
  26.5844   235.806                                               1215400500077 
  26.7556   284.971                                               1215400500078 
  26.9285   506.648                                               1215400500079 
  27.1031   944.710                                               1215400500080 
  27.2794  1141.47                                                1215400500081 
  27.4574   715.411                                               1215400500082 
  27.6371   325.432                                               1215400500083 
  27.8187   226.225                                               1215400500084 
  28.0020   133.883                                               1215400500085 
  28.1871   117.706                                               1215400500086 
  28.3741   106.802                                               1215400500087 
  28.5629   113.923                                               1215400500088 
  28.7537    64.2388                                              1215400500089 
  28.9463   104.166                                               1215400500090 
  29.1409    37.7291                                              1215400500091 
  29.3375   158.369                                               1215400500092 
  29.5361   173.829                                               1215400500093 
  29.7366    79.2321                                              1215400500094 
  29.9393   179.715                                               1215400500095 
  30.1440   191.538                                               1215400500096 
  30.3508   236.620                                               1215400500097 
  30.5598   102.779                                               1215400500098 
  30.7709   132.861                                               1215400500099 
  30.9842   131.758                                               1215400500100 
  31.1998   142.823                                               1215400500101 
  31.4175   174.805                                               1215400500102 
  31.6376    15.3940                                              1215400500103 
  31.8600   123.850                                               1215400500104 
  32.0848   136.698                                               1215400500105 
  32.3120   102.729                                               1215400500106 
  32.5415    35.4359                                              1215400500107 
  32.7735   160.601                                               1215400500108 
  33.0081    38.9674                                              1215400500109 
  33.2451    56.2564                                              1215400500110 
  33.4847   116.389                                               1215400500111 
  33.7269   109.723                                               1215400500112 
  33.9718    69.3132                                              1215400500113 
  34.2193    69.2420                                              1215400500114 
  34.4695    80.2603                                              1215400500115 
  34.7225    41.6108                                              1215400500116 
  34.9783    79.3977                                              1215400500117 
  35.2369    97.5566                                              1215400500118 
  35.4984    61.6759                                              1215400500119 
  35.7628    14.7213                                              1215400500120 
  36.0302    84.0919                                              1215400500121 
  36.3006    51.5231                                              1215400500122 
  36.5740    65.8636                                              1215400500123 
  36.8506   104.194                                               1215400500124 
  37.1303    87.6729                                              1215400500125 
  37.4132    96.6000                                              1215400500126 
  37.6993    93.2316                                              1215400500127 
  37.9888    75.5776                                              1215400500128 
  38.2815     8.0818                                              1215400500129 
  38.5777    95.4658                                              1215400500130 
  38.8774    82.3919                                              1215400500131 
  39.1805    46.7351                                              1215400500132 
  39.4872   135.378                                               1215400500133 
  39.7975    52.5109                                              1215400500134 
  40.1115    39.5312                                              1215400500135 
  40.4292   148.479                                               1215400500136 
  40.7507   123.167                                               1215400500137 
  41.0761    96.5235                                              1215400500138 
  41.4053    72.4534                                              1215400500139 
  41.7386    22.2618                                              1215400500140 
  42.0758    23.5332                                              1215400500141 
  42.4172    33.1009                                              1215400500142 
  42.7628    11.8912                                              1215400500143 
  43.1126    80.0224                                              1215400500144 
  43.4667    51.0503                                              1215400500145 
  43.8252   138.656                                               1215400500146 
  44.1881     8.4756                                              1215400500147 
  44.5556   168.235                                               1215400500148 
  44.9277    84.2183                                              1215400500149 
  45.3044   128.058                                               1215400500150 
  45.6859   203.730                                               1215400500151 
  46.0723   508.898                                               1215400500152 
  46.4635   914.765                                               1215400500153 
  46.8598   830.529                                               1215400500154 
  47.2612   350.340                                               1215400500155 
  47.6677   204.657                                               1215400500156 
  48.0795   310.796                                               1215400500157 
  48.4967   260.754                                               1215400500158 
  48.9193    63.2827                                              1215400500159 
  49.3475    66.8515                                              1215400500160 
  49.7813    53.0119                                              1215400500161 
  50.2209    41.2673                                              1215400500162 
  50.6663    30.6342                                              1215400500163 
  51.1177    12.8520                                              1215400500164 
  51.5751    69.5231                                              1215400500165 
  52.0387    76.8054                                              1215400500166 
  52.5086    41.0903                                              1215400500167 
  52.9849     3.6201                                              1215400500168 
  53.4676    45.9533                                              1215400500169 
  53.9570    59.7890                                              1215400500170 
  54.4532     0.0989                                              1215400500171 
  54.9562    27.5752                                              1215400500172 
  55.4663    61.8158                                              1215400500173 
  55.9834    51.8569                                              1215400500174 
  56.5079    29.6531                                              1215400500175 
  57.0397    27.3772                                              1215400500176 
  57.5791    78.4811                                              1215400500177 
  58.1261    32.0854                                              1215400500178 
  58.6810    33.0341                                              1215400500179 
  59.2439    78.6962                                              1215400500180 
  59.8149    23.8882                                              1215400500181 
  60.3943     3.1661                                              1215400500182 
  60.9820    19.8962                                              1215400500183 
  61.5784    32.5347                                              1215400500184 
  62.1836    26.9733                                              1215400500185 
  62.7978    31.1905                                              1215400500186 
  63.4211    51.6779                                              1215400500187 
  64.0537   101.257                                               1215400500188 
  64.6958    46.3607                                              1215400500189 
  65.3477    58.5660                                              1215400500190 
  66.0094    26.2823                                              1215400500191 
  66.6813     8.7071                                              1215400500192 
  67.3634    23.4741                                              1215400500193 
  68.0561    45.3351                                              1215400500194 
  68.7595    32.1901                                              1215400500195 
  69.4739    38.4494                                              1215400500196 
  70.1995    46.0814                                              1215400500197 
  70.9365     0.8572                                              1215400500198 
  71.6852    13.7575                                              1215400500199 
  72.4457    28.9927                                              1215400500200 
  73.2185    79.5631                                              1215400500201 
  74.0037    43.8440                                              1215400500202 
  74.8015    13.7056                                              1215400500203 
  75.6124    20.8807                                              1215400500204 
  76.4365    44.7553                                              1215400500205 
  77.2742     8.3725                                              1215400500206 
  78.1257    20.7180                                              1215400500207 
  78.9913    17.1003                                              1215400500208 
  79.8714    14.2749                                              1215400500209 
  80.7663    21.6157                                              1215400500210 
  81.6764    27.1741                                              1215400500211 
  82.6019    28.6655                                              1215400500212 
  83.5432    23.2451                                              1215400500213 
  84.5007     6.8119                                              1215400500214 
  85.4748    52.7330                                              1215400500215 
  86.4658    55.5809                                              1215400500216 
  87.4741    13.9186                                              1215400500217 
  88.5002    37.5019                                              1215400500218 
  89.5444    73.3696                                              1215400500219 
  90.6073    14.1473                                              1215400500220 
  91.6891    15.9863                                              1215400500221 
  92.7905    17.2063                                              1215400500222 
  93.9118    36.8856                                              1215400500223 
  95.0536    30.6936                                              1215400500224 
  96.2163    61.1031                                              1215400500225 
  97.4005    67.8156                                              1215400500226 
  98.6067     9.2734                                              1215400500227 
  99.8354    33.7859                                              1215400500228 
 101.087    105.600                                               1215400500229 
 102.362    126.025                                               1215400500230 
 103.662     71.1002                                              1215400500231 
 104.987     50.2500                                              1215400500232 
 106.337     10.5768                                              1215400500233 
 107.714     25.6320                                              1215400500234 
 109.117     23.9219                                              1215400500235 
 110.548     23.4842                                              1215400500236 
 112.008      3.5477                                              1215400500237 
 113.496    164.239                                               1215400500238 
 115.014    450.913                                               1215400500239 
 116.563    289.784                                               1215400500240 
 118.144     72.5762                                              1215400500241 
 119.757    102.843                                               1215400500242 
 121.403     34.0918                                              1215400500243 
 123.083     19.1390                                              1215400500244 
 124.799     15.0470                                              1215400500245 
 126.550      7.3502                                              1215400500246 
 128.339     38.1281                                              1215400500247 
 130.166     58.8978                                              1215400500248 
 132.032     26.9456                                              1215400500249 
 133.939     44.6730                                              1215400500250 
 135.887     24.3854                                              1215400500251 
 137.878     39.0225                                              1215400500252 
 139.913      9.3228                                              1215400500253 
 141.993     43.6614                                              1215400500254 
 144.120     37.5910                                              1215400500255 
 146.296     15.3178                                              1215400500256 
 148.521      9.3691                                              1215400500257 
 150.797     12.0447                                              1215400500258 
ENDDATA            250          0                                 1215400500259 
ENDSUBENT          258          0                                 1215400599999 
SUBENT        12154006   19821012                             00001215400600001 
BIB                  2          3                                 1215400600002 
REACTION  1(74-W-0(N,0),,EN)                                      1215400600003 
          2(74-W-0(N,0),,J)                                       1215400600004 
STATUS     (PRELM)                                                1215400600005 
ENDBIB               3          0                                 1215400600006 
NOCOMMON             0          0                                 1215400600007 
DATA                 2          7                                 1215400600008 
DATA      1DATA      2                                            1215400600009 
EV         NO-DIM                                                 1215400600010 
  7.6       0.                                                    1215400600011 
 27.3       1.                                                    1215400600012 
 46.5       1.                                                    1215400600013 
 48.1                                                             1215400600014 
102.4       1.                                                    1215400600015 
147.                                                              1215400600016 
157.                                                              1215400600017 
ENDDATA              9          0                                 1215400600018 
ENDSUBENT           17          0                                 1215400699999 
ENDENTRY             6          0                                 1215499999999 
