ENTRY            13135   20220822                             150013135  0    1 
SUBENT        13135001   20220822                             150013135  1    1 
BIB                 11         19                                 13135  1    2 
INSTITUTE  (1USAANL)                                              13135  1    3 
REFERENCE  (J,NP/A,493,267,1989)                                  13135  1    4 
           (R,ANL-NDM-106,1988)                                   13135  1    5 
AUTHOR     (R.D.Lawson,P.T.Guenther,A.B.Smith)                    13135  1    6 
TITLE      Neutron scattering and the Fermi surface anomaly in    13135  1    7 
           51V.                                                   13135  1    8 
FACILITY   (DYNAM,1USAANL) Tandem dynamitron                      13135  1    9 
INC-SOURCE (D-D)                                                  13135  1   10 
METHOD     (TOF)                                                  13135  1   11 
SAMPLE     Chemically pure V metal, solid cylinders, 2 cm diam.,  13135  1   12 
            2 cm long                                             13135  1   13 
MONITOR    (1-H-1(N,EL)1-H-1,,SIG)                                13135  1   14 
STATUS     (TABLE) Data received via electronic mail 88/7/11      13135  1   15 
           (APRVD) A.B.Smith, 88/12/21.                           13135  1   16 
HISTORY    (19881115C)                                            13135  1   17 
           (19891106A) Reference update.                          13135  1   18 
           (20220702A) OS. Data format in sub.3 corrected,        13135  1   19 
            updated ERR-ANALYS, added SAMPLE, converted to lower  13135  1   20 
            case.                                                 13135  1   21 
ENDBIB              19          0                                 13135  1   22 
NOCOMMON             0          0                                 13135  1   23 
ENDSUBENT           22          0                                 13135  199999 
SUBENT        13135002   20220822                             150013135  2    1 
BIB                  3         12                                 13135  2    2 
REACTION   (23-V-0(N,EL)23-V-0,,DA)                               13135  2    3 
ERR-ANALYS (ERR-S,1.) Statistical uncertainties varied from < 1%  13135  2    4 
            in regions of large cross sections, to > 10% at the   13135  2    5 
            minima of the distributions                           13135  2    6 
           (ERR-SYS,,3.) Systematic uncertainties estimated <= 3%,13135  2    7 
            arising primarily from absolute calibration of        13135  2    8 
            detectors                                             13135  2    9 
           (ERR-1,1.) Uncertainty due to correction procedures    13135  2   10 
            generally <= 1%, except at minima of distributions    13135  2   11 
            where they may be considerably larger                 13135  2   12 
           (ERR-T) Total uncertainty                              13135  2   13 
COMMENT    Multiple measurements at same angle                    13135  2   14 
ENDBIB              12          0                                 13135  2   15 
NOCOMMON             0          0                                 13135  2   16 
DATA                 4        520                                 13135  2   17 
EN         ANG        DATA       ERR-T                            13135  2   18 
MEV        ADEG       B/SR       PER-CENT                         13135  2   19 
  4.5000    19.400001   1.570000  3.000000                        13135  2   20 
  4.5000    24.299997   1.320000  3.000000                        13135  2   21 
  4.5000    26.300001   1.260000  3.000000                        13135  2   22 
  4.5000    27.200001   1.170000  3.000000                        13135  2   23 
  4.5000    29.200000   1.100000  3.000000                        13135  2   24 
  4.5000    34.199995    .848000  3.000000                        13135  2   25 
  4.5000    37.199998    .707000  3.000000                        13135  2   26 
  4.5000    42.100000    .487000  3.000000                        13135  2   27 
  4.5000    45.100003    .383000  3.000000                        13135  2   28 
  4.5000    50.100005    .247000  3.000000                        13135  2   29 
  4.5000    53.099990    .183000  3.280000                        13135  2   30 
  4.5000    57.599998    .115000  5.220001                        13135  2   31 
  4.5000    60.599995    .079500  7.550000                        13135  2   32 
  4.5000    65.600002    .046000 13.000000                        13135  2   33 
  4.5000    68.499994    .037300 16.099998                        13135  2   34 
  4.5000    73.000002    .031000 19.400001                        13135  2   35 
  4.5000    75.999999    .032000 18.799999                        13135  2   36 
  4.5000    80.999994    .034800 17.199999                        13135  2   37 
  4.5000    84.000003    .042500 14.100000                        13135  2   38 
  4.5000    88.499999    .049100 12.200001                        13135  2   39 
  4.5000    91.499996    .057700 10.400000                        13135  2   40 
  4.5000    96.500003    .068300  8.780000                        13135  2   41 
  4.5000    99.500000    .072100  8.320000                        13135  2   42 
  4.5000   104.000002    .076300  7.860000                        13135  2   43 
  4.5000   106.999993    .076800  7.810000                        13135  2   44 
  4.5000   111.999989    .075200  7.980000                        13135  2   45 
  4.5000   115.000010    .072300  8.299999                        13135  2   46 
  4.5000   119.000000    .065300  9.190000                        13135  2   47 
  4.5000   122.000009    .064300  9.330000                        13135  2   48 
  4.5000   127.000004    .053300 11.299999                        13135  2   49 
  4.5000   129.999995    .048700 12.300000                        13135  2   50 
  4.5000   134.999990    .042700 14.100000                        13135  2   51 
  4.5000   138.000011    .037900 15.799999                        13135  2   52 
  4.5000   143.000007    .032800 18.300000                        13135  2   53 
  4.5000   145.000011    .031600 19.000000                        13135  2   54 
  4.5000   145.999998    .030500 19.700000                        13135  2   55 
  4.5000   148.000002    .030600 19.599998                        13135  2   56 
  4.5000   152.999997    .032700 18.300000                        13135  2   57 
  4.5000   155.999988    .033300 18.000001                        13135  2   58 
  5.0000    16.400000   1.720000  3.040000                        13135  2   59 
  5.0000    19.400001   1.620000  3.060000                        13135  2   60 
  5.0000    24.299997   1.340000  3.110000                        13135  2   61 
  5.0000    26.300001   1.240000  3.130000                        13135  2   62 
  5.0000    27.200001   1.130000  3.140000                        13135  2   63 
  5.0000    29.200000   1.090000  3.170000                        13135  2   64 
  5.0000    34.199995    .812000  3.260000                        13135  2   65 
  5.0000    37.199998    .648000  3.330000                        13135  2   66 
  5.0000    42.100000    .439000  3.450000                        13135  2   67 
  5.0000    45.100003    .340000  3.540000                        13135  2   68 
  5.0000    50.100005    .213000  3.700000                        13135  2   69 
  5.0000    53.099990    .141000  3.800000                        13135  2   70 
  5.0000    57.599998    .087200  4.590000                        13135  2   71 
  5.0000    60.599995    .059400  6.730000                        13135  2   72 
  5.0000    65.600002    .032300 12.399999                        13135  2   73 
  5.0000    68.499994    .023200 17.199999                        13135  2   74 
  5.0000    73.000002    .020400 19.599998                        13135  2   75 
  5.0000    75.999999    .021400 18.700001                        13135  2   76 
  5.0000    80.999994    .027400 14.600000                        13135  2   77 
  5.0000    84.000003    .034500 11.600001                        13135  2   78 
  5.0000    88.499999    .043400  9.219999                        13135  2   79 
  5.0000    91.499996    .051900  7.710000                        13135  2   80 
  5.0000    96.500003    .058200  6.870000                        13135  2   81 
  5.0000    99.500000    .062300  6.420000                        13135  2   82 
  5.0000   104.000002    .065400  6.120000                        13135  2   83 
  5.0000   106.999993    .066100  6.050000                        13135  2   84 
  5.0000   111.999989    .064100  6.240000                        13135  2   85 
  5.0000   115.000010    .059000  6.780000                        13135  2   86 
  5.0000   119.000000    .051700  7.739999                        13135  2   87 
  5.0000   122.000009    .049500  8.080000                        13135  2   88 
  5.0000   127.000004    .042500  9.410000                        13135  2   89 
  5.0000   129.999995    .036400 10.999998                        13135  2   90 
  5.0000   134.999990    .030900 12.900001                        13135  2   91 
  5.0000   138.000011    .028700 13.900000                        13135  2   92 
  5.0000   143.000007    .024900 16.099998                        13135  2   93 
  5.0000   145.000011    .023800 16.799998                        13135  2   94 
  5.0000   145.999998    .023600 16.900000                        13135  2   95 
  5.0000   148.000002    .023900 16.700000                        13135  2   96 
  5.0000   152.999997    .025300 15.799999                        13135  2   97 
  5.0000   155.999988    .026100 15.300000                        13135  2   98 
  5.5000    17.800000   1.700000  3.000000                        13135  2   99 
  5.5000    20.700002   1.560000  3.000000                        13135  2  100 
  5.5000    25.599998   1.250000  3.000000                        13135  2  101 
  5.5000    27.599996   1.140000  3.000000                        13135  2  102 
  5.5000    28.599995   1.060000  3.000000                        13135  2  103 
  5.5000    30.900002    .962000  3.000000                        13135  2  104 
  5.5000    35.500002    .692000  3.000000                        13135  2  105 
  5.5000    38.499999    .536000  3.000000                        13135  2  106 
  5.5000    43.500006    .354000  3.000000                        13135  2  107 
  5.5000    46.499997    .271000  3.000000                        13135  2  108 
  5.5000    51.499999    .156000  3.000000                        13135  2  109 
  5.5000    54.499996    .106000  3.000000                        13135  2  110 
  5.5000    58.899999    .059800  3.340000                        13135  2  111 
  5.5000    61.900008    .036900  5.420001                        13135  2  112 
  5.5000    66.899991    .018800 10.599999                        13135  2  113 
  5.5000    69.899988    .013500 14.800000                        13135  2  114 
  5.5000    74.399996    .013500 14.800000                        13135  2  115 
  5.5000    77.399993    .017600 11.399999                        13135  2  116 
  5.5000    82.399988    .024400  8.200001                        13135  2  117 
  5.5000    85.399997    .031900  6.270001                        13135  2  118 
  5.5000    89.899993    .037300  5.360000                        13135  2  119 
  5.5000    92.899990    .043500  4.600000                        13135  2  120 
  5.5000    97.899997    .050900  3.930000                        13135  2  121 
  5.5000   100.999993    .050200  3.980000                        13135  2  122 
  5.5000   104.999989    .051700  3.870000                        13135  2  123 
  5.5000   107.999992    .054100  3.700000                        13135  2  124 
  5.5000   113.000005    .049900  4.010000                        13135  2  125 
  5.5000   116.000009    .046500  4.300000                        13135  2  126 
  5.5000   121.000004    .041800  4.780000                        13135  2  127 
  5.5000   123.999995    .037400  5.350001                        13135  2  128 
  5.5000   129.000008    .031800  6.289999                        13135  2  129 
  5.5000   131.999999    .027600  7.250000                        13135  2  130 
  5.5000   135.999978    .025700  7.780000                        13135  2  131 
  5.5000   138.999999    .022400  8.930000                        13135  2  132 
  5.5000   143.999994    .023000  8.700001                        13135  2  133 
  5.5000   145.999998    .022900  8.729999                        13135  2  134 
  5.5000   147.000015    .023000  8.700001                        13135  2  135 
  5.5000   148.999989    .021700  9.219999                        13135  2  136 
  5.5000   153.999984    .025400  7.869999                        13135  2  137 
  5.5000   157.000005    .026400  7.580000                        13135  2  138 
  5.9000    17.300001   1.860000  9.059999                        13135  2  139 
  5.9000    20.299998   1.650000  8.090000                        13135  2  140 
  5.9000    25.199997   1.450000  8.160000                        13135  2  141 
  5.9000    27.200001   1.210000  7.190000                        13135  2  142 
  5.9000    28.200001   1.080000  6.210001                        13135  2  143 
  5.9000    30.100000   1.020000  5.250000                        13135  2  144 
  5.9000    35.099995    .769000  3.360000                        13135  2  145 
  5.9000    38.099998    .545000  3.430000                        13135  2  146 
  5.9000    43.099993    .382000  3.550000                        13135  2  147 
  5.9000    46.000004    .280000  3.620000                        13135  2  148 
  5.9000    50.999999    .167000  3.740000                        13135  2  149 
  5.9000    53.999996    .094600  3.840000                        13135  2  150 
  5.9000    58.500004    .069000  4.030000                        13135  2  151 
  5.9000    61.500001    .042900  4.660000                        13135  2  152 
  5.9000    66.499996    .022800  8.770001                        13135  2  153 
  5.9000    69.500005    .014600 13.700002                        13135  2  154 
  5.9000    74.000001    .012300 16.299999                        13135  2  155 
  5.9000    76.899993    .013900 14.399999                        13135  2  156 
  5.9000    81.899989    .021500  9.299999                        13135  2  157 
  5.9000    84.899998    .025600  7.810000                        13135  2  158 
  5.9000    89.399993    .033300  6.010001                        13135  2  159 
  5.9000    92.399991    .035600  5.620000                        13135  2  160 
  5.9000    97.399998    .045900  4.360000                        13135  2  161 
  5.9000    99.999994    .044700  4.470000                        13135  2  162 
  5.9000   104.999989    .047100  4.250000                        13135  2  163 
  5.9000   107.999992    .047800  4.180000                        13135  2  164 
  5.9000   113.000005    .047600  4.200000                        13135  2  165 
  5.9000   116.000009    .043800  4.570000                        13135  2  166 
  5.9000   120.000005    .040000  5.000000                        13135  2  167 
  5.9000   122.999996    .037100  5.390000                        13135  2  168 
  5.9000   127.999991    .032500  6.150000                        13135  2  169 
  5.9000   130.999982    .027000  7.409999                        13135  2  170 
  5.9000   135.999978    .021000  9.520000                        13135  2  171 
  5.9000   138.999999    .019100 10.499999                        13135  2  172 
  5.9000   143.999994    .019300 10.400000                        13135  2  173 
  5.9000   145.999998    .017400 11.500001                        13135  2  174 
  5.9000   147.000015    .019800 10.099999                        13135  2  175 
  5.9000   148.999989    .019100 10.499999                        13135  2  176 
  5.9000   153.999984    .022200  9.010000                        13135  2  177 
  5.9000   157.000005    .022300  8.970000                        13135  2  178 
  6.5000    17.300001   1.950000  3.110000                        13135  2  179 
  6.5000    20.199999   1.740000  3.160000                        13135  2  180 
  6.5000    25.199997   1.450000  3.270000                        13135  2  181 
  6.5000    27.100003   1.240000  3.320000                        13135  2  182 
  6.5000    28.100002   1.190000  3.350000                        13135  2  183 
  6.5000    30.100000   1.010000  3.420000                        13135  2  184 
  6.5000    35.099995    .752000  3.630000                        13135  2  185 
  6.5000    38.099998    .570000  3.770000                        13135  2  186 
  6.5000    43.000001    .335000  4.040000                        13135  2  187 
  6.5000    46.000004    .235000  4.210000                        13135  2  188 
  6.5000    50.999999    .136000  4.470000                        13135  2  189 
  6.5000    53.999996    .085500  4.570000                        13135  2  190 
  6.5000    58.500004    .051400  4.600000                        13135  2  191 
  6.5000    61.500001    .030200  4.740000                        13135  2  192 
  6.5000    66.499996    .015000  7.279999                        13135  2  193 
  6.5000    69.399989    .012000  8.620001                        13135  2  194 
  6.5000    73.899996    .008800 11.399999                        13135  2  195 
  6.5000    76.899993    .011600  8.690001                        13135  2  196 
  6.5000    81.899989    .016100  6.520001                        13135  2  197 
  6.5000    84.899998    .018500  5.740000                        13135  2  198 
  6.5000    89.399993    .023400  4.529999                        13135  2  199 
  6.5000    92.399991    .029100  3.640000                        13135  2  200 
  6.5000    97.399998    .034500  3.100000                        13135  2  201 
  6.5000   100.999993    .037500  3.040000                        13135  2  202 
  6.5000   104.999989    .040700  3.020000                        13135  2  203 
  6.5000   107.999992    .041700  3.000000                        13135  2  204 
  6.5000   113.000005    .042500  3.000000                        13135  2  205 
  6.5000   116.000009    .040400  3.010000                        13135  2  206 
  6.5000   120.000005    .036400  3.050000                        13135  2  207 
  6.5000   122.999996    .034300  3.100000                        13135  2  208 
  6.5000   127.999991    .030200  3.470000                        13135  2  209 
  6.5000   130.999982    .025000  4.160000                        13135  2  210 
  6.5000   135.999978    .019400  5.250000                        13135  2  211 
  6.5000   138.999999    .018100  5.569999                        13135  2  212 
  6.5000   143.999994    .016700  5.990000                        13135  2  213 
  6.5000   145.999998    .015900  6.300000                        13135  2  214 
  6.5000   147.000015    .016100  6.229999                        13135  2  215 
  6.5000   148.999989    .018300  5.510000                        13135  2  216 
  6.5000   153.999984    .022100  4.680001                        13135  2  217 
  6.5000   157.000005    .025100  4.200000                        13135  2  218 
  7.1400    17.800000   1.820000  9.100001                        13135  2  219 
  7.1400    20.700002   1.540000  8.139999                        13135  2  220 
  7.1400    25.599998   1.240000  7.229999                        13135  2  221 
  7.1400    27.599996   1.090000  6.280000                        13135  2  222 
  7.1400    28.599995   1.010000  5.300000                        13135  2  223 
  7.1400    30.900002    .822000  4.360000                        13135  2  224 
  7.1400    35.500002    .585000  3.510000                        13135  2  225 
  7.1400    38.499999    .436000  3.630000                        13135  2  226 
  7.1400    43.500006    .255000  3.850000                        13135  2  227 
  7.1400    46.499997    .155000  4.000000                        13135  2  228 
  7.1400    51.499999    .090100  4.220001                        13135  2  229 
  7.1400    54.499996    .053100  4.260000                        13135  2  230 
  7.1400    58.899999    .030500  6.560000                        13135  2  231 
  7.1400    61.900008    .019600 10.200000                        13135  2  232 
  7.1400    66.899991    .014900 13.400000                        13135  2  233 
  7.1400    69.899988    .012200 16.400000                        13135  2  234 
  7.1400    74.399996    .010800 18.500000                        13135  2  235 
  7.1400    77.399993    .011000 18.200001                        13135  2  236 
  7.1400    82.399988    .014300 14.000002                        13135  2  237 
  7.1400    85.399997    .017200 11.600001                        13135  2  238 
  7.1400    89.899993    .021500  9.299999                        13135  2  239 
  7.1400    92.899990    .023900  8.370001                        13135  2  240 
  7.1400    97.899997    .030500  6.560000                        13135  2  241 
  7.1400   100.999993    .033700  5.930001                        13135  2  242 
  7.1400   104.999989    .034300  5.829999                        13135  2  243 
  7.1400   107.999992    .036900  5.420001                        13135  2  244 
  7.1400   113.000005    .037700  5.310000                        13135  2  245 
  7.1400   116.000009    .037000  5.410000                        13135  2  246 
  7.1400   121.000004    .032300  6.190000                        13135  2  247 
  7.1400   123.999995    .027700  7.220000                        13135  2  248 
  7.1400   129.000008    .023000  8.700001                        13135  2  249 
  7.1400   131.999999    .019900 10.099999                        13135  2  250 
  7.1400   135.999978    .018100 10.999998                        13135  2  251 
  7.1400   138.999999    .016800 11.900000                        13135  2  252 
  7.1400   143.999994    .018900 10.599999                        13135  2  253 
  7.1400   145.999998    .017100 11.700001                        13135  2  254 
  7.1400   147.000015    .019700 10.200000                        13135  2  255 
  7.1400   148.999989    .018100 10.999998                        13135  2  256 
  7.1400   153.999984    .024200  8.260000                        13135  2  257 
  7.1400   157.000005    .025700  7.780000                        13135  2  258 
  7.5000    16.299999   1.890000  3.300000                        13135  2  259 
  7.5000    24.200001   1.240000  3.630000                        13135  2  260 
  7.5000    26.099998   1.040000  3.730000                        13135  2  261 
  7.5000    27.100003   1.050000  3.790000                        13135  2  262 
  7.5000    29.100001    .919000  3.900000                        13135  2  263 
  7.5000    34.099996    .525000  4.200000                        13135  2  264 
  7.5000    37.099999    .405000  4.399999                        13135  2  265 
  7.5000    41.999996    .238000  4.710000                        13135  2  266 
  7.5000    44.999999    .175000  4.880000                        13135  2  267 
  7.5000    50.000000    .077200  5.080000                        13135  2  268 
  7.5000    52.999997    .051200  5.120000                        13135  2  269 
  7.5000    57.500005    .030500  6.560000                        13135  2  270 
  7.5000    60.500002    .020800  9.620001                        13135  2  271 
  7.5000    65.499997    .011800 16.900000                        13135  2  272 
  7.5000    68.399990    .011200 17.900002                        13135  2  273 
  7.5000    72.899997    .010600 18.900001                        13135  2  274 
  7.5000    75.899994    .011800 16.900000                        13135  2  275 
  7.5000    80.899990    .013100 15.300000                        13135  2  276 
  7.5000    83.899999    .015200 13.200003                        13135  2  277 
  7.5000    88.399994    .019800 10.099999                        13135  2  278 
  7.5000    91.399992    .023100  8.659999                        13135  2  279 
  7.5000    96.399999    .026500  7.550000                        13135  2  280 
  7.5000    99.399996    .030900  6.470001                        13135  2  281 
  7.5000   104.000002    .032300  6.190000                        13135  2  282 
  7.5000   105.999988    .035000  5.710000                        13135  2  283 
  7.5000   110.999984    .032800  6.100000                        13135  2  284 
  7.5000   114.000005    .031900  6.270001                        13135  2  285 
  7.5000   119.000000    .029800  6.710000                        13135  2  286 
  7.5000   122.000009    .027900  7.170000                        13135  2  287 
  7.5000   127.000004    .019900 10.099999                        13135  2  288 
  7.5000   130.999982    .018400 10.900000                        13135  2  289 
  7.5000   134.000003    .015600 12.799999                        13135  2  290 
  7.5000   136.999995    .015300 13.099998                        13135  2  291 
  7.5000   142.000020    .015500 12.900001                        13135  2  292 
  7.5000   143.999994    .017100 11.700001                        13135  2  293 
  7.5000   145.999998    .018500 10.799999                        13135  2  294 
  7.5000   147.000015    .020700  9.660000                        13135  2  295 
  7.5000   152.999997    .024800  8.060000                        13135  2  296 
  8.0300    16.599998   1.910000  9.090000                        13135  2  297 
  8.0300    19.499999   1.690000  9.129999                        13135  2  298 
  8.0300    24.499997   1.300000  8.230000                        13135  2  299 
  8.0300    26.400006   1.100000  7.270000                        13135  2  300 
  8.0300    27.400005   1.060000  6.300000                        13135  2  301 
  8.0300    29.400003    .891000  5.350001                        13135  2  302 
  8.0300    34.399998    .589000  4.529999                        13135  2  303 
  8.0300    37.400001    .432000  3.650000                        13135  2  304 
  8.0300    42.300004    .218000  3.870000                        13135  2  305 
  8.0300    45.300007    .146000  3.990000                        13135  2  306 
  8.0300    50.300002    .076100  4.010000                        13135  2  307 
  8.0300    53.299999    .049000  4.080000                        13135  2  308 
  8.0300    57.800007    .027700  7.220000                        13135  2  309 
  8.0300    60.800004    .019300 10.400000                        13135  2  310 
  8.0300    65.799999    .013700 14.600000                        13135  2  311 
  8.0300    68.699992    .011400 17.500001                        13135  2  312 
  8.0300    73.199999    .010600 19.999999                        13135  2  313 
  8.0300    76.199996    .010900 18.300000                        13135  2  314 
  8.0300    81.199992    .011400 17.500001                        13135  2  315 
  8.0300    84.200001    .013500 14.800000                        13135  2  316 
  8.0300    88.699996    .015200 13.200003                        13135  2  317 
  8.0300    91.699994    .019900 10.099999                        13135  2  318 
  8.0300    96.700001    .023900  8.370001                        13135  2  319 
  8.0300    99.699998    .027500  7.270000                        13135  2  320 
  8.0300   104.000002    .029400  6.800001                        13135  2  321 
  8.0300   106.999993    .031700  6.310000                        13135  2  322 
  8.0300   111.999989    .033000  6.060001                        13135  2  323 
  8.0300   115.000010    .031400  6.370000                        13135  2  324 
  8.0300   120.000005    .025600  7.810000                        13135  2  325 
  8.0300   122.999996    .022300  8.970000                        13135  2  326 
  8.0300   127.999991    .018000 11.100001                        13135  2  327 
  8.0300   130.999982    .015200 13.200003                        13135  2  328 
  8.0300   134.999990    .013000 15.399998                        13135  2  329 
  8.0300   138.000011    .013700 14.600000                        13135  2  330 
  8.0300   143.000007    .015500 12.900001                        13135  2  331 
  8.0300   145.000011    .017400 11.500001                        13135  2  332 
  8.0300   145.999998    .018300 10.900000                        13135  2  333 
  8.0300   148.000002    .020900  9.570000                        13135  2  334 
  8.0300   152.999997    .030400  6.580000                        13135  2  335 
  8.0300   155.999988    .033300  6.010001                        13135  2  336 
  8.4000    18.900001   1.690000  9.000000                        13135  2  337 
  8.4000    21.799999   1.440000  8.000000                        13135  2  338 
  8.4000    26.700002   1.020000  7.000000                        13135  2  339 
  8.4000    28.700000    .878000  6.000000                        13135  2  340 
  8.4000    29.700005    .783000  5.000000                        13135  2  341 
  8.4000    31.999999    .671000  4.000000                        13135  2  342 
  8.4000    36.699998    .396000  3.000000                        13135  2  343 
  8.4000    39.600003    .271000  3.000000                        13135  2  344 
  8.4000    44.599998    .152000  3.000000                        13135  2  345 
  8.4000    47.600001    .093600  3.000000                        13135  2  346 
  8.4000    52.600002    .044300  4.510000                        13135  2  347 
  8.4000    55.599999    .028600  6.990000                        13135  2  348 
  8.4000    60.100007    .016200 12.300000                        13135  2  349 
  8.4000    63.099992    .012600 15.899998                        13135  2  350 
  8.4000    67.999995    .010900 18.300000                        13135  2  351 
  8.4000    71.000004    .009800 20.400000                        13135  2  352 
  8.4000    75.999999    .011200 17.900002                        13135  2  353 
  8.4000    78.499997    .011800 16.900000                        13135  2  354 
  8.4000    83.500004    .014400 13.900000                        13135  2  355 
  8.4000    86.500001    .016200 12.300000                        13135  2  356 
  8.4000    90.999997    .018200 10.999998                        13135  2  357 
  8.4000    94.000006    .020700  9.660000                        13135  2  358 
  8.4000    99.000001    .024900  8.030001                        13135  2  359 
  8.4000   101.999998    .026600  7.520001                        13135  2  360 
  8.4000   105.999988    .029000  6.899999                        13135  2  361 
  8.4000   109.999985    .029400  6.800001                        13135  2  362 
  8.4000   114.000005    .029000  6.899999                        13135  2  363 
  8.4000   117.000014    .025200  7.939999                        13135  2  364 
  8.4000   122.000009    .022600  8.850000                        13135  2  365 
  8.4000   125.000000    .017800 11.200002                        13135  2  366 
  8.4000   129.999995    .015300 13.099998                        13135  2  367 
  8.4000   132.999986    .012900 15.500000                        13135  2  368 
  8.4000   136.999995    .012100 16.500002                        13135  2  369 
  8.4000   140.000015    .014300 14.000002                        13135  2  370 
  8.4000   145.000011    .016700 12.000000                        13135  2  371 
  8.4000   147.000015    .022600  8.850000                        13135  2  372 
  8.4000   148.000002    .022900  8.729999                        13135  2  373 
  8.4000   150.000006    .028200  7.090000                        13135  2  374 
  8.4000   155.000001    .035300  5.670000                        13135  2  375 
  9.0600    17.099997   1.760000  9.000000                        13135  2  376 
  9.0600    17.900002   1.750000  8.329999                        13135  2  377 
  9.0600    20.099998   1.510000  7.000000                        13135  2  378 
  9.0600    20.800000   1.420000  6.430000                        13135  2  379 
  9.0600    25.000000   1.060000  6.000000                        13135  2  380 
  9.0600    25.700003   1.000000  6.660000                        13135  2  381 
  9.0600    26.999998    .872000  6.000000                        13135  2  382 
  9.0600    27.700001    .860000  6.760000                        13135  2  383 
  9.0600    28.000003    .811000  6.000000                        13135  2  384 
  9.0600    28.700000    .742000  6.819999                        13135  2  385 
  9.0600    30.299997    .668000  6.000000                        13135  2  386 
  9.0600    31.000000    .612000  6.949999                        13135  2  387 
  9.0600    34.900004    .388000  5.000000                        13135  2  388 
  9.0600    35.699999    .376000  4.260000                        13135  2  389 
  9.0600    37.900001    .268000  3.000000                        13135  2  390 
  9.0600    38.599998    .243000  4.460000                        13135  2  391 
  9.0600    42.900002    .136000  3.000000                        13135  2  392 
  9.0600    43.599999    .122000  4.790000                        13135  2  393 
  9.0600    45.899999    .079200  3.000000                        13135  2  394 
  9.0600    46.599996    .073600  4.920000                        13135  2  395 
  9.0600    50.800002    .038900  5.140001                        13135  2  396 
  9.0600    51.600003    .037100  5.580000                        13135  2  397 
  9.0600    53.799999    .025900  7.720001                        13135  2  398 
  9.0600    54.600000    .023400  8.549999                        13135  2  399 
  9.0600    58.299994    .015900 12.599999                        13135  2  400 
  9.0600    59.099996    .018000 11.100001                        13135  2  401 
  9.0600    61.099994    .013600 14.700001                        13135  2  402 
  9.0600    66.299999    .010900 18.300000                        13135  2  403 
  9.0600    66.999996    .012600 15.899998                        13135  2  404 
  9.0600    69.300008    .010800 18.500000                        13135  2  405 
  9.0600    70.000005    .011400 17.500001                        13135  2  406 
  9.0600    74.300003    .010300 19.400001                        13135  2  407 
  9.0600    75.000000    .011500 17.400002                        13135  2  408 
  9.0600    76.800001    .009500 21.099997                        13135  2  409 
  9.0600    77.499998    .010900 18.300000                        13135  2  410 
  9.0600    81.800008    .013100 15.300000                        13135  2  411 
  9.0600    82.500005    .012900 15.500000                        13135  2  412 
  9.0600    84.800005    .013900 14.399999                        13135  2  413 
  9.0600    85.500002    .013900 14.399999                        13135  2  414 
  9.0600    89.199996    .016500 12.100000                        13135  2  415 
  9.0600    89.999998    .015200 13.200003                        13135  2  416 
  9.0600    92.199993    .018900 10.599999                        13135  2  417 
  9.0600    92.999995    .017200 11.700001                        13135  2  418 
  9.0600    97.200000    .022900  8.729999                        13135  2  419 
  9.0600    98.000002    .021800  9.620001                        13135  2  420 
  9.0600    99.999994    .024500  8.160000                        13135  2  421 
  9.0600   100.999993    .023100  8.970000                        13135  2  422 
  9.0600   104.999989    .026500  7.550000                        13135  2  423 
  9.0600   108.999997    .026200  7.630000                        13135  2  424 
  9.0600   113.000005    .022700  8.809999                        13135  2  425 
  9.0600   113.000005    .025600  7.830000                        13135  2  426 
  9.0600   116.000009    .020700  9.660000                        13135  2  427 
  9.0600   116.000009    .023500  8.510001                        13135  2  428 
  9.0600   120.000005    .017900 11.200002                        13135  2  429 
  9.0600   121.000004    .019600 10.200000                        13135  2  430 
  9.0600   122.999996    .015900 12.599999                        13135  2  431 
  9.0600   123.999995    .016800 11.900000                        13135  2  432 
  9.0600   127.999991    .012400 16.099998                        13135  2  433 
  9.0600   129.000008    .012000 16.700000                        13135  2  434 
  9.0600   130.999982    .010300 19.400001                        13135  2  435 
  9.0600   131.999999    .010600 18.900001                        13135  2  436 
  9.0600   135.999978    .011900 16.799998                        13135  2  437 
  9.0600   138.999999    .014100 14.200002                        13135  2  438 
  9.0600   143.999994    .014800 13.499999                        13135  2  439 
  9.0600   143.999994    .017900 11.200002                        13135  2  440 
  9.0600   145.999998    .018400 10.900000                        13135  2  441 
  9.0600   145.999998    .019200 10.400000                        13135  2  442 
  9.0600   147.000015    .018100 10.999998                        13135  2  443 
  9.0600   148.000002    .021000  9.520000                        13135  2  444 
  9.0600   148.999989    .023400  8.590000                        13135  2  445 
  9.0600   153.999984    .028700  7.200000                        13135  2  446 
  9.5000    17.900002   1.550000  3.330000                        13135  2  447 
  9.5000    20.800000   1.320000  3.440000                        13135  2  448 
  9.5000    25.700003    .900000  3.670000                        13135  2  449 
  9.5000    27.700001    .753000  3.780000                        13135  2  450 
  9.5000    28.700000    .651000  3.840000                        13135  2  451 
  9.5000    31.000000    .566000  3.980000                        13135  2  452 
  9.5000    35.699999    .329000  4.320000                        13135  2  453 
  9.5000    38.599998    .214000  4.540000                        13135  2  454 
  9.5000    43.599999    .101000  4.880000                        13135  2  455 
  9.5000    46.599996    .064400  4.930000                        13135  2  456 
  9.5000    51.600003    .031400  6.050000                        13135  2  457 
  9.5000    54.600000    .023400  7.079999                        13135  2  458 
  9.5000    59.099996    .017700  8.850000                        13135  2  459 
  9.5000    62.100005    .015200 10.900000                        13135  2  460 
  9.5000    66.999996    .013000 13.099998                        13135  2  461 
  9.5000    70.000005    .012400 13.900000                        13135  2  462 
  9.5000    74.500000    .010000 18.200001                        13135  2  463 
  9.5000    77.499998    .010600 16.599998                        13135  2  464 
  9.5000    82.500005    .012000 14.800000                        13135  2  465 
  9.5000    85.500002    .012400 15.300000                        13135  2  466 
  9.5000    89.999998    .015200 13.299999                        13135  2  467 
  9.5000    92.999995    .016900 12.300000                        13135  2  468 
  9.5000    98.000002    .020200 10.300000                        13135  2  469 
  9.5000   100.999993    .020500 10.099999                        13135  2  470 
  9.5000   104.999989    .027300  7.840000                        13135  2  471 
  9.5000   108.999997    .026100  7.970001                        13135  2  472 
  9.5000   113.000005    .022100  9.240000                        13135  2  473 
  9.5000   116.000009    .019900 10.300000                        13135  2  474 
  9.5000   121.000004    .015800 12.000000                        13135  2  475 
  9.5000   123.999995    .014500 13.400000                        13135  2  476 
  9.5000   129.000008    .010900 17.000002                        13135  2  477 
  9.5000   131.999999    .010300 17.099997                        13135  2  478 
  9.5000   135.999978    .010200 17.099997                        13135  2  479 
  9.5000   138.999999    .012100 15.500000                        13135  2  480 
  9.5000   143.999994    .018100 10.700002                        13135  2  481 
  9.5000   145.999998    .017200 11.500001                        13135  2  482 
  9.5000   147.000015    .021300  9.469999                        13135  2  483 
  9.5000   148.999989    .018800 10.799999                        13135  2  484 
  9.5000   153.999984    .026400  7.930000                        13135  2  485 
  9.5000   157.000005    .031500  7.149999                        13135  2  486 
  9.9900    22.200003   1.050000  9.000000                        13135  2  487 
  9.9900    27.599996    .715000  8.000000                        13135  2  488 
  9.9900    27.700001    .697000  7.000000                        13135  2  489 
  9.9900    28.700000    .673000  7.000000                        13135  2  490 
  9.9900    31.000000    .494000  6.000000                        13135  2  491 
  9.9900    32.099998    .478000  5.000000                        13135  2  492 
  9.9900    35.699999    .263000  4.100000                        13135  2  493 
  9.9900    37.599999    .242000  3.780000                        13135  2  494 
  9.9900    42.500001    .123000  3.910000                        13135  2  495 
  9.9900    43.599999    .104000  3.880000                        13135  2  496 
  9.9900    46.599996    .067500  3.670000                        13135  2  497 
  9.9900    51.600003    .035400  4.240000                        13135  2  498 
  9.9900    54.600000    .025900  5.790000                        13135  2  499 
  9.9900    58.000004    .020100  6.740000                        13135  2  500 
  9.9900    59.099996    .017300  8.670000                        13135  2  501 
  9.9900    62.100005    .013700 10.900000                        13135  2  502 
  9.9900    63.499999    .012600 10.200000                        13135  2  503 
  9.9900    66.999996    .010100 14.899999                        13135  2  504 
  9.9900    68.899989    .010100 13.200003                        13135  2  505 
  9.9900    70.000005    .009400 15.899998                        13135  2  506 
  9.9900    74.000001    .009900 13.200003                        13135  2  507 
  9.9900    77.999997    .010700 12.599999                        13135  2  508 
  9.9900    83.500004    .013700 10.099999                        13135  2  509 
  9.9900    85.500002    .015800  9.490000                        13135  2  510 
  9.9900    88.899994    .017200  8.750000                        13135  2  511 
  9.9900    89.999998    .018600  8.060000                        13135  2  512 
  9.9900    92.999995    .021800  6.880000                        13135  2  513 
  9.9900    94.399989    .019400  7.890000                        13135  2  514 
  9.9900    98.000002    .025200  5.950000                        13135  2  515 
  9.9900    99.999994    .023500  6.470001                        13135  2  516 
  9.9900   100.999993    .025700  5.840000                        13135  2  517 
  9.9900   104.000002    .024600  6.100000                        13135  2  518 
  9.9900   104.999989    .025100  5.979999                        13135  2  519 
  9.9900   108.999997    .023000  6.520001                        13135  2  520 
  9.9900   109.999985    .020800  7.240000                        13135  2  521 
  9.9900   113.000005    .020400  7.350000                        13135  2  522 
  9.9900   115.000010    .018400  8.350000                        13135  2  523 
  9.9900   116.000009    .016600  9.040000                        13135  2  524 
  9.9900   121.000004    .013600 10.999998                        13135  2  525 
  9.9900   123.999995    .010900 13.799998                        13135  2  526 
  9.9900   125.000000    .011000 13.400000                        13135  2  527 
  9.9900   129.000008    .007400 20.199999                        13135  2  528 
  9.9900   131.999999    .006800 22.100002                        13135  2  529 
  9.9900   134.999990    .009300 15.099999                        13135  2  530 
  9.9900   135.999978    .010100 14.899999                        13135  2  531 
  9.9900   140.000015    .011500 12.599999                        13135  2  532 
  9.9900   143.999994    .015600  9.620001                        13135  2  533 
  9.9900   145.000011    .016200  9.059999                        13135  2  534 
  9.9900   145.999998    .015100  9.799999                        13135  2  535 
  9.9900   145.999998    .018600  8.060000                        13135  2  536 
  9.9900   147.000015    .018500  8.110001                        13135  2  537 
  9.9900   150.000006    .022000  7.170000                        13135  2  538 
  9.9900   155.000001    .030500  5.620000                        13135  2  539 
ENDDATA            522          0                                 13135  2  540 
ENDSUBENT          539          0                                 13135  299999 
SUBENT        13135003   20220822                             150013135  3    1 
BIB                  3          3                                 13135  3    2 
REACTION   (23-V-0(N,INL)23-V-0,PAR,SIG)                          13135  3    3 
ERR-ANALYS (DATA-ERR) No information on sources of uncertainties  13135  3    4 
HISTORY    (20220702A) Data format corrected                      13135  3    5 
ENDBIB               3          0                                 13135  3    6 
COMMON               2          3                                 13135  3    7 
E-LVL-MIN  E-LVL-MAX                                              13135  3    8 
MEV        MEV                                                    13135  3    9 
 1.6        1.85                                                  13135  3   10 
ENDCOMMON            3          0                                 13135  3   11 
DATA                 3         12                                 13135  3   12 
EN         DATA       DATA-ERR                                    13135  3   13 
MEV        B          B                                           13135  3   14 
  .4500E+01  .2090E+00  .2090E-01                                 13135  3   15 
  .5000E+01  .1450E+00  .1450E-01                                 13135  3   16 
  .5500E+01  .1080E+00  .1080E-01                                 13135  3   17 
  .5900E+01  .0960E+00  .0960E-01                                 13135  3   18 
  .6500E+01  .0639E+00  .0639E-01                                 13135  3   19 
  .7100E+01  .0620E+00  .0620E-01                                 13135  3   20 
  .7500E+01  .0465E+00  .0465E-01                                 13135  3   21 
  .8000E+01  .0441E+00  .0441E-01                                 13135  3   22 
  .8400E+01  .0448E+00  .0448E-01                                 13135  3   23 
  .9060E+01  .0406E+00  .0406E-01                                 13135  3   24 
  .9500E+01  .0316E+00  .0316E-01                                 13135  3   25 
  .9999E+01  .0332E+00  .0332E-01                                 13135  3   26 
ENDDATA             14          0                                 13135  3   27 
ENDSUBENT           26          0                                 13135  399999 
ENDENTRY             3          0                                 1313599999999 
