ENTRY            13526   20021118                             00001352600000001 
SUBENT        13526001   20021118                             00001352600100001 
BIB                 10         15                                 1352600100002 
INSTITUTE  (1USAORL)                                              1352600100003 
REFERENCE  (J,ANE,18,567,1991)                                    1352600100004 
AUTHOR     (R.L.Macklin,R.B.Perez,G.de Saussure,R.W.Ingle)        1352600100005 
TITLE      High energy resolution measurement of the 238U neutron 1352600100006 
            capture yield from 1 to 100 keV.                      1352600100007 
FACILITY   (LINAC) ORELA. 150-m flight path.                      1352600100008 
INC-SOURCE (PHOTO) Electrons on water-cooled tantalum target.     1352600100009 
DETECTOR   (SCIN) Liquid scintillator (ORELAST) gamma detector.   1352600100010 
           6Li glass scintillator used to monitor neutron flux.   1352600100011 
CORRECTION Corrected for dead-time, background, and neutron flux  1352600100012 
            normalization uncertainties.                          1352600100013 
STATUS     No reply to author proof.                              1352600100014 
HISTORY    (19911119C)                                            1352600100015 
           (20021118A) Updated to new date formats, lower case.   1352600100016 
                       BIB updated.                               1352600100017 
ENDBIB              15          0                                 1352600100018 
NOCOMMON             0          0                                 1352600100019 
ENDSUBENT           18          0                                 1352600199999 
SUBENT        13526002   20021118                             00001352600200001 
BIB                  6         10                                 1352600200002 
REACTION   (92-U-238(N,G)92-U-239,,SIG,,AV/REL)                   1352600200003 
            Capture yield.                                        1352600200004 
SAMPLE     Metallic sample 99.99% 238U, sample thickness          1352600200005 
            0.01236 atom/barn.                                    1352600200006 
ANALYSIS   Yields normalized using normalization constant derived 1352600200007 
            as average of ratio of calculated to measured area    1352600200008 
            under 8 isolated resonacnes.                          1352600200009 
ERR-ANALYS (DATA-ERR) Normalization uncertainty not included.     1352600200010 
STATUS     Data read from tables in paper using electronic scanner1352600200011 
HISTORY    (20021118A) Energy corrected.                          1352600200012 
ENDBIB              10          0                                 1352600200013 
NOCOMMON             0          0                                 1352600200014 
DATA                 4         25                                 1352600200015 
EN-MIN     EN-MAX     DATA       DATA-ERR                         1352600200016 
KEV        KEV        NO-DIM     NO-DIM                           1352600200017 
 0.3         0.4        1.15       0.06                           1352600200018 
 0.4         0.5        1.91       0.10                           1352600200019 
 0.5         0.6        1.89       0.09                           1352600200020 
 0.6         0.7        1.84       0.09                           1352600200021 
 0.7         0.8        2.61       0.08                           1352600200022 
 0.8         0.9        1.67       0.08                           1352600200023 
 0.9         1.         1.88       0.09                           1352600200024 
 1.          2.         1.31       0.07                           1352600200025 
 2.          3.         1.15       0.06                           1352600200026 
 3.          4.         1.08       0.05                           1352600200027 
 4.          5.         0.907      0.045                          1352600200028 
 5.          6.         0.899      0.045                          1352600200029 
 6.          7.         0.852      0.043                          1352600200030 
 7.          8.         0.794      0.040                          1352600200031 
 8.          9.         0.678      0.034                          1352600200032 
 9.         10.         0.727      0.036                          1352600200033 
10.         20.         0.629      0.030                          1352600200034 
20.         30.         0.503      0.020                          1352600200035 
30.         40.         0.440      0.018                          1352600200036 
40.         50.         0.392      0.016                          1352600200037 
50.         60.         0.324      0.013                          1352600200038 
60.         70.         0.283      0.011                          1352600200039 
70.         80.         0.243      0.009                          1352600200040 
80.         90.         0.223      0.009                          1352600200041 
90.        100.         0.214      0.009                          1352600200042 
ENDDATA             27          0                                 1352600200043 
ENDSUBENT           42          0                                 1352600299999 
SUBENT        13526003   20021118                             00001352600300001 
BIB                  6         10                                 1352600300002 
REACTION   (92-U-238(N,G)92-U-239,,SIG,,AV/REL)                   1352600300003 
            Capture yield.                                        1352600300004 
SAMPLE     Metallic sample 99.99% 238U, sample thickness          1352600300005 
            0.00309 atom/barn.                                    1352600300006 
ANALYSIS   Yields normalized using normalization constant derived 1352600300007 
            as average of ratio of calculated to measured area    1352600300008 
            under 8 isolated resonacnes.                          1352600300009 
ERR-ANALYS (DATA-ERR) Normalization uncertainty not included.     1352600300010 
STATUS     Data read from tables in paper using electronic scanner1352600300011 
HISTORY    (20021118A) Energy corrected.                          1352600300012 
ENDBIB              10          0                                 1352600300013 
NOCOMMON             0          0                                 1352600300014 
DATA                 4         25                                 1352600300015 
EN-MIN     EN-MAX     DATA       DATA-ERR                         1352600300016 
KEV        KEV        NO-DIM     NO-DIM                           1352600300017 
  0.3        0.4        1.87       0.08                           1352600300018 
  0.4        0.5        2.52       0.13                           1352600300019 
  0.5        0.6        3.46       0.17                           1352600300020 
  0.6        0.7        2.81       0.14                           1352600300021 
  0.7        0.8        1.88       0.09                           1352600300022 
  0.8        0.9        2.47       0.12                           1352600300023 
  0.9        1.         2.95       0.15                           1352600300024 
  1.         2.         1.73       0.09                           1352600300025 
  2.         3.         1.37       0.07                           1352600300026 
  3.         4.         1.21       0.06                           1352600300027 
  4.         5.         0.962      0.048                          1352600300028 
  5.         6.         0.947      0.047                          1352600300029 
  6.         7.         0.905      0.045                          1352600300030 
  7.         8.         0.814      0.041                          1352600300031 
  8.         9.         0.708      0.035                          1352600300032 
  9.        10.         0.743      0.037                          1352600300033 
 10.        20.         0.641      0.026                          1352600300034 
 20.        30.         0.505      0.020                          1352600300035 
 30.        40.         0.443      0.018                          1352600300036 
 40.        50.         0.396      0.016                          1352600300037 
 50.        60.         0.336      0.013                          1352600300038 
 60.        70.         0.294      0.012                          1352600300039 
 70.        80.         0.264      0.011                          1352600300040 
 80.        90.         0.239      0.009                          1352600300041 
 90.       100.         0.229      0.009                          1352600300042 
ENDDATA             27          0                                 1352600300043 
ENDSUBENT           42          0                                 1352600399999 
SUBENT        13526004   20021118                             00001352600400001 
BIB                  4          5                                 1352600400002 
REACTION   (92-U-238(N,0),,EN)                                    1352600400003 
ERR-ANALYS No information on uncertainties.                       1352600400004 
COMMENT    Resonances not detected in previous 238U transmission  1352600400005 
            measurement                                           1352600400006 
STATUS     Data read from tables in paper using electronic scanner1352600400007 
ENDBIB               5          0                                 1352600400008 
NOCOMMON             0          0                                 1352600400009 
DATA                 1        197                                 1352600400010 
DATA                                                              1352600400011 
EV                                                                1352600400012 
    556.8                                                         1352600400013 
    734.8                                                         1352600400014 
    801.0                                                         1352600400015 
    834.2                                                         1352600400016 
    907.2                                                         1352600400017 
    982.5                                                         1352600400018 
    984.0                                                         1352600400019 
   1278.5                                                         1352600400020 
   1456.4                                                         1352600400021 
   1562.6                                                         1352600400022 
   1614.1                                                         1352600400023 
   1766.7                                                         1352600400024 
   1985.3                                                         1352600400025 
   2035.2                                                         1352600400026 
   2038.6                                                         1352600400027 
   2063.4                                                         1352600400028 
   2126.3                                                         1352600400029 
   2140.5                                                         1352600400030 
   2178.9                                                         1352600400031 
   2192.4                                                         1352600400032 
   2197.5                                                         1352600400033 
   2220.2                                                         1352600400034 
   2304.9                                                         1352600400035 
   2434.9                                                         1352600400036 
   2439.4                                                         1352600400037 
   2452.3                                                         1352600400038 
   2468.0                                                         1352600400039 
   2509.5                                                         1352600400040 
   2575.9                                                         1352600400041 
   2647.6                                                         1352600400042 
   2654.3                                                         1352600400043 
   2688.1                                                         1352600400044 
   2720.9                                                         1352600400045 
   2732.8                                                         1352600400046 
   2778.9                                                         1352600400047 
   2825.3                                                         1352600400048 
   2846.4                                                         1352600400049 
   3048.5                                                         1352600400050 
   3210.3                                                         1352600400051 
   3215.1                                                         1352600400052 
   3233.0                                                         1352600400053 
   3257.7                                                         1352600400054 
   3413.6                                                         1352600400055 
   3447.4                                                         1352600400056 
   3452.4                                                         1352600400057 
   3471.1                                                         1352600400058 
   3506.7                                                         1352600400059 
   3542.4                                                         1352600400060 
   3547.2                                                         1352600400061 
   3583.6                                                         1352600400062 
   3603.5                                                         1352600400063 
   3746.5                                                         1352600400064 
   3791.1                                                         1352600400065 
   3809.0                                                         1352600400066 
   3949.7                                                         1352600400067 
   3962.4                                                         1352600400068 
   3979.4                                                         1352600400069 
   3993.1                                                         1352600400070 
   4052.6                                                         1352600400071 
   4101.1                                                         1352600400072 
   4104.9                                                         1352600400073 
   4158.1                                                         1352600400074 
   4182.9                                                         1352600400075 
   4202.5                                                         1352600400076 
   4236.3                                                         1352600400077 
   4244.8                                                         1352600400078 
   4270.5                                                         1352600400079 
   4319.5                                                         1352600400080 
   4341.0                                                         1352600400081 
   4413.6                                                         1352600400082 
   4426.4                                                         1352600400083 
   4439.3                                                         1352600400084 
   4441.4                                                         1352600400085 
   4497.6                                                         1352600400086 
   4529.9                                                         1352600400087 
   4551.8                                                         1352600400088 
   4573.4                                                         1352600400089 
   4602.8                                                         1352600400090 
   4677.3                                                         1352600400091 
   4716.0                                                         1352600400092 
   4775.9                                                         1352600400093 
   4812.5                                                         1352600400094 
   4839.7                                                         1352600400095 
   4870.8                                                         1352600400096 
   4960.4                                                         1352600400097 
   5063.4                                                         1352600400098 
   5067.2                                                         1352600400099 
   5096.0                                                         1352600400100 
   5110.3                                                         1352600400101 
   5128.5                                                         1352600400102 
   5151.5                                                         1352600400103 
   5177.7                                                         1352600400104 
   5180.8                                                         1352600400105 
   5328.3                                                         1352600400106 
   5442.9                                                         1352600400107 
   5569.8                                                         1352600400108 
   5599.0                                                         1352600400109 
   5633.0                                                         1352600400110 
   5658.5                                                         1352600400111 
   5664.0                                                         1352600400112 
   5690.1                                                         1352600400113 
   5702.4                                                         1352600400114 
   5727.7                                                         1352600400115 
   5908.4                                                         1352600400116 
   6102.4                                                         1352600400117 
   6334.6                                                         1352600400118 
   6368.3                                                         1352600400119 
   6466.4                                                         1352600400120 
   6529.9                                                         1352600400121 
   6558.9                                                         1352600400122 
   6603.4                                                         1352600400123 
   6621.1                                                         1352600400124 
   6673.0                                                         1352600400125 
   6716.7                                                         1352600400126 
   6720.5                                                         1352600400127 
   6731.5                                                         1352600400128 
   6754.0                                                         1352600400129 
   6768.3                                                         1352600400130 
   6777.0                                                         1352600400131 
   6941.6                                                         1352600400132 
   6989.8                                                         1352600400133 
   6994.8                                                         1352600400134 
   7055.2                                                         1352600400135 
   7077.2                                                         1352600400136 
   7110.1                                                         1352600400137 
   7226.2                                                         1352600400138 
   7332.8                                                         1352600400139 
   7352.6                                                         1352600400140 
   7386.0                                                         1352600400141 
   7469.0                                                         1352600400142 
   7477.0                                                         1352600400143 
   7490.1                                                         1352600400144 
   7513.5                                                         1352600400145 
   7530.1                                                         1352600400146 
   7583.3                                                         1352600400147 
   7631.9                                                         1352600400148 
   7707.8                                                         1352600400149 
   7714.9                                                         1352600400150 
   7739.6                                                         1352600400151 
   7746.0                                                         1352600400152 
   7789.0                                                         1352600400153 
   7794.3                                                         1352600400154 
   7820.1                                                         1352600400155 
   7865.2                                                         1352600400156 
   7892.4                                                         1352600400157 
   7917.3                                                         1352600400158 
   8010.0                                                         1352600400159 
   8018.2                                                         1352600400160 
   8059.3                                                         1352600400161 
   8066.8                                                         1352600400162 
   8078.2                                                         1352600400163 
   8122.8                                                         1352600400164 
   8168.5                                                         1352600400165 
   8171.0                                                         1352600400166 
   8233.6                                                         1352600400167 
   8268.2                                                         1352600400168 
   8295.5                                                         1352600400169 
   8302.9                                                         1352600400170 
   8343.0                                                         1352600400171 
   8427.8                                                         1352600400172 
   8441.2                                                         1352600400173 
   8519.7                                                         1352600400174 
   8621.1                                                         1352600400175 
   8643.2                                                         1352600400176 
   8680.1                                                         1352600400177 
   8697.5                                                         1352600400178 
   8717.6                                                         1352600400179 
   8792.9                                                         1352600400180 
   8798.2                                                         1352600400181 
   8811.1                                                         1352600400182 
   8975.3                                                         1352600400183 
   8994.2                                                         1352600400184 
   9055.7                                                         1352600400185 
   9111.6                                                         1352600400186 
   9123.8                                                         1352600400187 
   9181.5                                                         1352600400188 
   9195.0                                                         1352600400189 
   9206.2                                                         1352600400190 
   9226.0                                                         1352600400191 
   9291.9                                                         1352600400192 
   9310.2                                                         1352600400193 
   9339.0                                                         1352600400194 
   9344.9                                                         1352600400195 
   9516.8                                                         1352600400196 
   9540.5                                                         1352600400197 
   9567.7                                                         1352600400198 
   9719.1                                                         1352600400199 
   9784.0                                                         1352600400200 
   9812.6                                                         1352600400201 
   9821.9                                                         1352600400202 
   9877.3                                                         1352600400203 
   9888.0                                                         1352600400204 
   9890.8                                                         1352600400205 
   9919.9                                                         1352600400206 
   9938.0                                                         1352600400207 
   9959.3                                                         1352600400208 
   9976.3                                                         1352600400209 
ENDDATA            199          0                                 1352600400210 
ENDSUBENT          209          0                                 1352600499999 
SUBENT        13526005   20021118                             00001352600500001 
BIB                  3          6                                 1352600500002 
REACTION   (92-U-238(N,EL),,WID,,G)                               1352600500003 
SAMPLE     Metallic sample 99.99% 238U, sample thickness          1352600500004 
            0.01236 atom/barn.                                    1352600500005 
ERR-ANALYS (ERR-S) Statistical uncertainty.                       1352600500006 
           Systematic uncertainties arising from normalization and1352600500007 
            background subtraction estimated to be 6%.            1352600500008 
ENDBIB               6          0                                 1352600500009 
NOCOMMON             0          0                                 1352600500010 
DATA                 3          4                                 1352600500011 
EN-RES     DATA       ERR-S                                       1352600500012 
KEV        MILLI-EV   MILLI-EV                                    1352600500013 
1.417       2.94       0.05                                       1352600500014 
1.420       8.37       0.08                                       1352600500015 
1.444      15.17       0.13                                       1352600500016 
1.448       1.18       0.04                                       1352600500017 
ENDDATA              6          0                                 1352600500018 
ENDSUBENT           17          0                                 1352600599999 
SUBENT        13526006   20021118                             00001352600600001 
BIB                  3          6                                 1352600600002 
REACTION   (92-U-238(N,EL),,WID,,G)                               1352600600003 
SAMPLE     Metallic sample 99.99% 238U, sample thickness          1352600600004 
            0.00309 atom/barn.                                    1352600600005 
ERR-ANALYS (ERR-S) Statistical uncertainty.                       1352600600006 
           Systematic uncertainties arising from normalization and1352600600007 
            background subtraction estimated to be 8%.            1352600600008 
ENDBIB               6          0                                 1352600600009 
NOCOMMON             0          0                                 1352600600010 
DATA                 3          4                                 1352600600011 
EN-RES     DATA       ERR-S                                       1352600600012 
KEV        MILLI-EV   MILLI-EV                                    1352600600013 
1.417       2.85       0.05                                       1352600600014 
1.420       8.35       0.08                                       1352600600015 
1.444      14.78       0.13                                       1352600600016 
1.448       1.14       0.04                                       1352600600017 
ENDDATA              6          0                                 1352600600018 
ENDSUBENT           17          0                                 1352600699999 
ENDENTRY             6          0                                 1352699999999 
