ENTRY            13959   20050201                             13321395900000001 
SUBENT        13959001   20050201                             13321395900100001 
BIB                  9         10                                 1395900100002 
INSTITUTE  (2JPNJNC,1USAORL)                                      1395900100003 
REFERENCE  (J,NST,41,1033,2004)                                   1395900100004 
AUTHOR     (K.Furutaka,H.Harada,S.Raman)                          1395900100005 
TITLE      Prompt Gamma Rays Emitted in Thermal-neutron Capture   1395900100006 
            Reaction by 99Tc and its Reaction Cross Section       1395900100007 
FACILITY   (REAC,1USALAS) Los Alamos Omega West Reactor           1395900100008 
INC-SPECT  6x1E11 n/cm2/s of thermal neutrons                     1395900100009 
SAMPLE     84.6 mg of 100 % pure Tc metal target                  1395900100010 
DETECTOR   (GE-IN) 30 cm3 coaxial intrinsic Ge detector           1395900100011 
HISTORY    (20050201C) DR                                         1395900100012 
ENDBIB              10          0                                 1395900100013 
COMMON               1          3                                 1395900100014 
EN-DUMMY                                                          1395900100015 
EV                                                                1395900100016 
0.0253                                                            1395900100017 
ENDCOMMON            3          0                                 1395900100018 
ENDSUBENT           17          0                                 1395900199999 
SUBENT        13959002   20050201                             13321395900200001 
BIB                  3          3                                 1395900200002 
REACTION   (43-TC-99(N,G)43-TC-100,PAR,SIG,,MXW)                  1395900200003 
ERR-ANALYS (ERR-S) Statistical errors                             1395900200004 
STATUS     Data received from K. Furutaka.                        1395900200005 
ENDBIB               3          0                                 1395900200006 
NOCOMMON             0          0                                 1395900200007 
DATA                 4       1086                                 1395900200008 
E          E-ERR      DATA       ERR-S                            1395900200009 
KEV        KEV        MB         MB                               1395900200010 
  30.8     0.06         102.      12.                             1395900200011 
  39.12    0.05          87.       6.                             1395900200012 
  43.18    0.03         269.       7.                             1395900200013 
  45.84    0.08          38.       5.                             1395900200014 
  50.85    0.09           3.1      0.4                            1395900200015 
  51.70    0.09           3.8      0.4                            1395900200016 
  52.85    0.06           6.1      0.4                            1395900200017 
  53.71    0.10           3.1      0.4                            1395900200018 
  56.63    0.06           7.1      0.6                            1395900200019 
  62.79    0.03         399.      12.                             1395900200020 
  63.75    0.04         186.       9.                             1395900200021 
  71.62    0.06          32.       3.                             1395900200022 
  73.11    0.08          22.4      2.4                            1395900200023 
  75.02    0.08         105.      22.                             1395900200024 
  75.52    0.03         364.      22.                             1395900200025 
  76.9     0.5           13.0      2.1                            1395900200026 
  86.76    0.04         457.      30.                             1395900200027 
  90.59    0.03         308.      43.                             1395900200028 
  91.32    0.03        1177.      77.                             1395900200029 
  94.58    0.05           3.7      0.3                            1395900200030 
  99.02    0.03         129.       3.                             1395900200031 
 102.85    0.13          19.       3.                             1395900200032 
 103.80    0.10          31.       3.                             1395900200033 
 105.43    0.08         337.       8.7                            1395900200034 
 105.81    0.06         436.       8.7                            1395900200035 
 107.25    0.15          15.       3.                             1395900200036 
 109.9     0.7            2.4      2.4                            1395900200037 
 113.20    0.03         115.       3.                             1395900200038 
 115.86    0.14           6.5      1.3                            1395900200039 
 118.93    0.03          30.4      1.3                            1395900200040 
 124.66    0.11           8.9      1.2                            1395900200041 
 127.47    0.04          88.       7.                             1395900200042 
 128.08    0.12          35.       6.                             1395900200043 
 129.24    0.07          20.8      1.6                            1395900200044 
 132.88    0.09           5.0      0.6                            1395900200045 
 134.84    0.25           1.7      0.7                            1395900200046 
 139.05    0.11          27.       3.                             1395900200047 
 140.34    0.05          90.       4.                             1395900200048 
 141.49    0.10          32.       4.                             1395900200049 
 144.27    0.03         196.       5.                             1395900200050 
 145.73    0.05          58.       4.                             1395900200051 
 152.74    0.03          78.7      1.1                            1395900200052 
 159.22    0.03          48.3      1.8                            1395900200053 
 160.81    0.18           4.5      1.2                            1395900200054 
 163.12    0.05          29.5      2.2                            1395900200055 
 166.58    0.06         355.      29.                             1395900200056 
 168.87    0.08         503.      47.                             1395900200057 
 169.95    0.18         258.      39.                             1395900200058 
 172.21    0.03       16694.     536.                             1395900200059 
 176.51    0.04          29.4     16.                             1395900200060 
 179.77    0.09          52.       8.                             1395900200061 
 180.36    0.04         112.       9.                             1395900200062 
 182.98    0.21           4.7      1.6                            1395900200063 
 185.67    0.03          57.3      1.2                            1395900200064 
 190.70    0.03          37.9      1.0                            1395900200065 
 194.44    0.04          58.       3.                             1395900200066 
 196.47    0.03         464.       6.                             1395900200067 
 199.3     0.4           13.       7.                             1395900200068 
 199.98    0.11          44.       7.                             1395900200069 
 202.9     0.5            9.       5.                             1395900200070 
 203.7     0.8            6.       5.                             1395900200071 
 206.17    0.03         302.       6.                             1395900200072 
 209.64    0.06          47.       4.                             1395900200073 
 211.31    0.05          76.       4.                             1395900200074 
 213.24    0.03         517.       9.                             1395900200075 
 217.17    0.03         439.      10.                             1395900200076 
 220.18    0.03         206.       6.                             1395900200077 
 221.87    0.05         132.       7.                             1395900200078 
 223.48    0.03        1511.      24.                             1395900200079 
 225.38    0.03         656.      18.                             1395900200080 
 226.42    0.04         304.      14.                             1395900200081 
 230.25    0.03          93.       3.                             1395900200082 
 231.35    0.06          46.       3.                             1395900200083 
 233.22    0.10          16.5      2.0                            1395900200084 
 236.47    0.05          36.6      2.0                            1395900200085 
 238.66    0.11          35.       5.                             1395900200086 
 239.52    0.04          91.       5.                             1395900200087 
 244.68    0.12          21.       3.                             1395900200088 
 247.15    0.16          16.       3.                             1395900200089 
 252.26    0.03         332.       7.                             1395900200090 
 253.56    0.05          96.       5.                             1395900200091 
 257.46    0.06          51.       3.                             1395900200092 
 260.97    0.03         139.       4.                             1395900200093 
 263.58    0.03        1453.      18.                             1395900200094 
 269.15    0.13          38.       6.                             1395900200095 
 270.04    0.04         150.       7.                             1395900200096 
 274.83    0.22          14.       3.                             1395900200097 
 276.55    0.03         849.      10.                             1395900200098 
 280.48    0.08          10.3      1.0                            1395900200099 
 281.98    0.03          57.9      1.2                            1395900200100 
 283.21    0.09          10.8      1.0                            1395900200101 
 285.03    0.07          10.9      0.9                            1395900200102 
 286.83    0.03          31.2      1.1                            1395900200103 
 288.74    0.03          80.3      1.4                            1395900200104 
 291.20    0.14          22.       4.                             1395900200105 
 292.94    0.04          98.       4.                             1395900200106 
 295.43    0.04          94.       4.                             1395900200107 
 297.10    0.07          62.       4.                             1395900200108 
 299.48    0.03        3095.      41.                             1395900200109 
 300.92    0.07         591.      32.                             1395900200110 
 301.65    0.15         129.      37.                             1395900200111 
 304.83    0.07          25.2      1.8                            1395900200112 
 306.09    0.12          13.3      1.7                            1395900200113 
 308.74    0.03          70.3      1.8                            1395900200114 
 312.30    0.03          74.8      2.3                            1395900200115 
 313.45    0.09          24.8      2.0                            1395900200116 
 317.48    0.20          74.      17.                             1395900200117 
 318.39    0.20          72.      17.                             1395900200118 
 321.58    0.06         144.       9.                             1395900200119 
 323.78    0.06         149.      10.                             1395900200120 
 327.45    0.17          10.6     21.                             1395900200121 
 329.43    0.03          67.0     24.                             1395900200122 
 332.41    0.13          13.5     19.                             1395900200123 
 335.29    0.04          47.1     22.                             1395900200124 
 338.95    0.03         661.       7.                             1395900200125 
 340.99    0.03         152.       3.                             1395900200126 
 344.89    0.03         250.       5.                             1395900200127 
 346.36    0.17         153.      60.                             1395900200128 
 346.83    0.20         113.      61.                             1395900200129 
 348.89    0.03         166.       3.                             1395900200130 
 352.00    0.07          28.7      2.4                            1395900200131 
 355.67    0.04          47.4      1.9                            1395900200132 
 357.37    0.04         111.       4.                             1395900200133 
 358.31    0.05          70.       4.                             1395900200134 
 360.49    0.08          17.2      1.6                            1395900200135 
 363.32    0.12          13.3      1.9                            1395900200136 
 364.84    0.06          32.3      1.8                            1395900200137 
 366.32    0.03          60.7      1.8                            1395900200138 
 370.42    0.03          60.6      0.9                            1395900200139 
 372.33    0.05          14.9      0.8                            1395900200140 
 374.32    0.04          17.10     0.10                           1395900200141 
 376.10    0.08          10.5      1.2                            1395900200142 
 378.01    0.10          24.       4.                             1395900200143 
 379.61    0.08          32.       3.                             1395900200144 
 381.86    0.04          69.       3.                             1395900200145 
 385.00    0.03         289.       5.                             1395900200146 
 386.62    0.04          93.       3.                             1395900200147 
 390.04    0.03         241.       5.                             1395900200148 
 393.07    0.04          76.       3.                             1395900200149 
 396.00    0.05          60.       3.                             1395900200150 
 398.00    0.05         142.       7.                             1395900200151 
 399.17    0.03         275.       7.                             1395900200152 
 401.50    0.03          99.       4.                             1395900200153 
 404.53    0.25           5.9      1.5                            1395900200154 
 405.91    0.13          11.5      1.4                            1395900200155 
 409.32    0.19           6.1      1.1                            1395900200156 
 411.20    0.06          20.5      1.2                            1395900200157 
 413.83    0.03         131.4      1.9                            1395900200158 
 419.97    0.23          10.7      2.1                            1395900200159 
 421.73    0.06          50.       3.                             1395900200160 
 423.78    0.08          34.7      2.3                            1395900200161 
 426.10    0.08          31.5      2.3                            1395900200162 
 429.54    0.05         148.       8.                             1395900200163 
 430.50    0.12          56.       8.                             1395900200164 
 433.45    0.06          47.2      2.5                            1395900200165 
 437.55    0.04          20.9      0.9                            1395900200166 
 439.43    0.05          21.1      0.9                            1395900200167 
 440.71    0.14           7.0      0.9                            1395900200168 
 443.60    0.07           9.7      0.7                            1395900200169 
 445.66    0.08           8.4      0.7                            1395900200170 
 448.06    0.04          18.1      0.8                            1395900200171 
 452.87    0.04          53.8      2.3                            1395900200172 
 454.81    0.08          30.0      2.1                            1395900200173 
 456.99    0.03          89.       3.                             1395900200174 
 458.7     0.3           39.8      2.3                            1395900200175 
 460.40    0.04          75.       3.                             1395900200176 
 463.69    0.03         162.       3.                             1395900200177 
 465.95    0.11          20.0      2.1                            1395900200178 
 470.64    0.03         265.       5.                             1395900200179 
 472.1     0.4           14.       3.                             1395900200180 
 473.5     0.6           18.       8.                             1395900200181 
 474.4     0.6           20.       7.                             1395900200182 
 475.61    0.17          33.       5.                             1395900200183 
 479.41    0.09          36.       3.                             1395900200184 
 480.91    0.09          41.       3.                             1395900200185 
 482.46    0.17          19.       3.                             1395900200186 
 484.43    0.03         166.       3.                             1395900200187 
 486.45    0.04          78.       3.                             1395900200188 
 488.79    0.03          73.       3.                             1395900200189 
 491.30    0.05          42.       3.                             1395900200190 
 493.76    0.09          15.8      1.7                            1395900200191 
 495.90    0.09          33.       3.                             1395900200192 
 496.99    0.14          25.       3.                             1395900200193 
 498.50    0.04          47.6      1.7                            1395900200194 
 503.32    0.03          78.1      1.5                            1395900200195 
 514.93    0.03          81.0      2.3                            1395900200196 
 516.73    0.09          15.1      2.4                            1395900200197 
 518.42    0.05          12.2      6.                             1395900200198 
 520.62    0.07          26.       3.                             1395900200199 
 523.34    0.03         167.       3.                             1395900200200 
 528.42    0.13          11.10     0.15                           1395900200201 
 531.85    0.10          15.5      1.6                            1395900200202 
 536.67    0.06          44.       7.                             1395900200203 
 544.32    0.05          98.       5.                             1395900200204 
 545.41    0.14          42.       4.                             1395900200205 
 546.97    0.10          41.       3.                             1395900200206 
 548.29    0.18          16.4      2.4                            1395900200207 
 550.96    0.03          77.5      2.1                            1395900200208 
 552.78    0.10          21.5      1.8                            1395900200209 
 555.01    0.04          50.2      2.0                            1395900200210 
 558.20    0.04          49.5      2.3                            1395900200211 
 562.34    0.04          49.1      1.8                            1395900200212 
 565.21    0.03          59.6      1.7                            1395900200213 
 568.04    0.03          71.4      1.9                            1395900200214 
 569.97    0.03          98.7      2.0                            1395900200215 
 574.37    0.04          58.2      1.9                            1395900200216 
 576.06    0.19          10.4      1.7                            1395900200217 
 578.43    0.14          21.       3.                             1395900200218 
 579.60    0.13          22.       3.                             1395900200219 
 583.28    0.03          65.4      1.5                            1395900200220 
 588.27    0.07          35.5      1.9                            1395900200221 
 593.89    0.06          42.8      1.8                            1395900200222 
 595.55    0.22          10.1      1.8                            1395900200223 
 597.07    0.13          19.1      1.9                            1395900200224 
 599.15    0.14          14.5      1.8                            1395900200225 
 601.06    0.18          10.6      1.9                            1395900200226 
 604.85    0.05          35.5      1.8                            1395900200227 
 607.71    0.08          19.5      1.5                            1395900200228 
 610.53    0.07          25.4      1.5                            1395900200229 
 614.39    0.03          71.6      1.9                            1395900200230 
 619.06    0.03          60.5      1.6                            1395900200231 
 621.46    0.06          71.       5.                             1395900200232 
 622.43    0.08          54.       5.                             1395900200233 
 625.97    0.09          16.7      1.2                            1395900200234 
 628.72    0.05          30.3      1.3                            1395900200235 
 633.91    0.03          44.8      1.5                            1395900200236 
 636.55    0.06          15.4      1.5                            1395900200237 
 639.41    0.05          44.3      1.6                            1395900200238 
 640.69    0.12          18.1      1.6                            1395900200239 
 642.56    0.09          30.8      2.2                            1395900200240 
 643.64    0.17          14.3      2.2                            1395900200241 
 648.25    0.05          54.10     0.20                           1395900200242 
 649.44    0.18          15.2      1.9                            1395900200243 
 651.12    0.04          40.5      1.3                            1395900200244 
 653.10    0.03          57.4      1.3                            1395900200245 
 657.46    0.03          31.6      0.9                            1395900200246 
 660.67    0.07          12.7      0.8                            1395900200247 
 663.17    0.06          17.4      0.8                            1395900200248 
 665.06    0.06          36.4      1.4                            1395900200249 
 666.34    0.03          78.1      1.5                            1395900200250 
 668.60    0.03          34.9      0.9                            1395900200251 
 670.49    0.15           6.8      0.9                            1395900200252 
 673.47    0.14           8.0      1.4                            1395900200253 
 678.70    0.03          39.5      0.8                            1395900200254 
 681.42    0.05          23.7      0.9                            1395900200255 
 682.88    0.03          86.2      1.0                            1395900200256 
 684.75    0.12           7.4      0.7                            1395900200257 
 687.86    0.03           9.7      1.1                            1395900200258 
 689.88    0.08          29.4      2.1                            1395900200259 
 691.06    0.19          19.1      1.7                            1395900200260 
 692.32    0.12          17.4      1.7                            1395900200261 
 695.58    0.18           7.3      1.7                            1395900200262 
 697.73    0.10          13.3      1.4                            1395900200263 
 700.41    0.08          17.6      1.2                            1395900200264 
 703.88    0.03          94.1      1.8                            1395900200265 
 705.38    0.10          21.4      1.6                            1395900200266 
 710.32    0.11          11.9      1.1                            1395900200267 
 712.99    0.05          27.9      1.1                            1395900200268 
 718.15    0.16          14.3      1.8                            1395900200269 
 719.39    0.14          30.1      2.0                            1395900200270 
 720.53    0.07          34.1      2.4                            1395900200271 
 723.37    0.04          26.10     0.09                           1395900200272 
 725.46    0.18           6.2      0.9                            1395900200273 
 727.53    0.16          12.8      1.8                            1395900200274 
 728.70    0.09          23.6      1.7                            1395900200275 
 732.5     0.4            4.3      1.7                            1395900200276 
 736.86    0.04          51.9      2.0                            1395900200277 
 739.44    0.12          15.8      2.5                            1395900200278 
 741.74    0.15           8.1      1.5                            1395900200279 
 743.88    0.05          24.7      1.3                            1395900200280 
 746.45    0.03          44.3      1.2                            1395900200281 
 749.56    0.04          33.3      1.4                            1395900200282 
 752.06    0.10          12.0      1.7                            1395900200283 
 754.38    0.07          43.       3.                             1395900200284 
 756.52    0.04          67.       3.                             1395900200285 
 760.13    0.12          18.5      2.1                            1395900200286 
 764.14    0.10          11.2      1.1                            1395900200287 
 767.57    0.07          33.       3.                             1395900200288 
 768.64    0.09          32.       3.                             1395900200289 
 771.17    0.10          11.3      9.                             1395900200290 
 774.25    0.08          14.3      1.1                            1395900200291 
 781.01    0.13          21.7      1.9                            1395900200292 
 782.66    0.21          12.9      1.7                            1395900200293 
 785.48    0.16          11.10     0.16                           1395900200294 
 790.44    0.05          22.9      1.4                            1395900200295 
 794.77    0.04          34.4      1.1                            1395900200296 
 799.55    0.05          23.10     0.11                           1395900200297 
 802.73    0.20           8.5      1.2                            1395900200298 
 804.30    0.14          19.9      1.5                            1395900200299 
 805.73    0.10          23.9      1.5                            1395900200300 
 807.85    0.13          10.7      1.3                            1395900200301 
 810.29    0.09          19.8      2.4                            1395900200302 
 813.40    0.03         201.       3.                             1395900200303 
 815.02    0.20          14.5      2.0                            1395900200304 
 818.52    0.04          28.6      1.1                            1395900200305 
 825.90    0.18           6.8      1.7                            1395900200306 
 828.75    0.11          20.10     0.18                           1395900200307 
 830.05    0.12          19.4      1.9                            1395900200308 
 832.62    0.07          30.0      1.4                            1395900200309 
 834.21    0.15          16.2      1.4                            1395900200310 
 835.88    0.15          11.5      1.3                            1395900200311 
 839.71    0.16           9.8      1.2                            1395900200312 
 840.86    0.10          15.1      1.3                            1395900200313 
 847.27    0.05          30.10     0.11                           1395900200314 
 849.87    0.06          23.1      1.0                            1395900200315 
 852.43    0.04          39.2      1.2                            1395900200316 
 855.10    0.10          13.5      1.2                            1395900200317 
 859.01    0.14          19.7      2.2                            1395900200318 
 860.14    0.21          11.2      2.4                            1395900200319 
 862.89    0.04          30.9      1.1                            1395900200320 
 866.77    0.21           7.7      1.3                            1395900200321 
 868.34    0.08          28.3      1.5                            1395900200322 
 870.04    0.18          10.4      1.6                            1395900200323 
 872.58    0.11          28.3      2.4                            1395900200324 
 873.88    0.21          29.       3.                             1395900200325 
 874.97    0.12          30.       4.                             1395900200326 
 878.68    0.19           7.7      1.4                            1395900200327 
 881.05    0.06          24.3      1.3                            1395900200328 
 886.36    0.06          24.7      1.3                            1395900200329 
 888.79    0.21           7.4      1.6                            1395900200330 
 892.77    0.11          18.6      1.8                            1395900200331 
 893.96    0.13          16.2      1.7                            1395900200332 
 899.90    0.11          17.2      1.6                            1395900200333 
 904.36    0.10          24.6      1.6                            1395900200334 
 906.73    0.11          19.10     0.16                           1395900200335 
 912.19    0.08          18.1      1.1                            1395900200336 
 914.44    0.23           5.6      1.0                            1395900200337 
 917.21    0.12          13.2      1.0                            1395900200338 
 919.07    0.07          23.1      1.1                            1395900200339 
 923.30    0.23           6.8      1.6                            1395900200340 
 926.01    0.03          62.4      1.5                            1395900200341 
 928.57    0.13          11.8      1.2                            1395900200342 
 935.51    0.11          13.2      1.1                            1395900200343 
 938.61    0.10          17.1      1.1                            1395900200344 
 940.63    0.12          13.5      1.1                            1395900200345 
 943.69    0.04          45.4      1.2                            1395900200346 
 946.70    0.05          29.8      1.2                            1395900200347 
 950.09    0.12          14.10     0.13                           1395900200348 
 952.08    0.16          14.9      1.4                            1395900200349 
 953.84    0.18          11.6      1.4                            1395900200350 
 958.23    0.03          45.2      1.3                            1395900200351 
 962.31    0.09          16.3      1.1                            1395900200352 
 965.94    0.08          18.1      1.1                            1395900200353 
 968.62    0.03          55.9      1.2                            1395900200354 
 971.97    0.04          43.7      1.2                            1395900200355 
 976.65    0.13          22.1      2.3                            1395900200356 
 977.9     0.3           10.8      2.2                            1395900200357 
 982.8     0.3           11.5      2.2                            1395900200358 
 984.31    0.09          43.1      2.3                            1395900200359 
 986.26    0.12          20.8      1.6                            1395900200360 
 989.09    0.13          14.7      1.6                            1395900200361 
 994.93    0.05          30.7      1.2                            1395900200362 
 998.43    0.13          14.3      1.2                            1395900200363 
1000.34    0.14          14.9      1.2                            1395900200364 
1002.48    0.10          16.3      1.1                            1395900200365 
1005.9     0.3            5.5      1.1                            1395900200366 
1008.82    0.24           7.10     0.13                           1395900200367 
1010.66    0.07          29.0      1.4                            1395900200368 
1017.42    0.19           9.1      1.1                            1395900200369 
1019.14    0.12          14.9      1.1                            1395900200370 
1024.48    0.07          17.3      0.9                            1395900200371 
1028.20    0.14           8.10     0.10                           1395900200372 
1032.9     0.3            6.6      1.2                            1395900200373 
1034.40    0.07          24.3      1.3                            1395900200374 
1037.06    0.07          19.5      0.9                            1395900200375 
1038.96    0.19           9.7      1.0                            1395900200376 
1040.86    0.07          39.3      1.4                            1395900200377 
1042.35    0.13          15.4      1.4                            1395900200378 
1045.52    0.03          45.2      1.3                            1395900200379 
1049.32    0.11          10.3      1.0                            1395900200380 
1052.51    0.04          28.4      0.9                            1395900200381 
1055.18    0.08          15.6      1.0                            1395900200382 
1061.80    0.05          25.7      0.9                            1395900200383 
1064.68    0.08          15.4      0.9                            1395900200384 
1067.09    0.05          31.5      1.0                            1395900200385 
1069.42    0.07          19.3      1.0                            1395900200386 
1072.06    0.05          23.1      1.2                            1395900200387 
1074.87    0.15           7.8      1.4                            1395900200388 
1076.96    0.15           7.7      1.5                            1395900200389 
1079.70    0.05          23.10     0.13                           1395900200390 
1082.98    0.07          17.5      1.0                            1395900200391 
1085.33    0.07          18.3      1.0                            1395900200392 
1088.18    0.09          12.4      1.2                            1395900200393 
1091.34    0.07          20.6      1.5                            1395900200394 
1094.57    0.18          15.9      2.2                            1395900200395 
1095.9     0.3           16.1      1.9                            1395900200396 
1097.45    0.18          14.1      1.6                            1395900200397 
1105.53    0.05          46.2      1.5                            1395900200398 
1108.56    0.18          16.10     0.19                           1395900200399 
1110.34    0.19          26.3      2.3                            1395900200400 
1112.03    0.09          52.4      2.4                            1395900200401 
1113.9     0.3           10.8      1.9                            1395900200402 
1117.54    0.14           5.10     0.10                           1395900200403 
1120.95    0.05          20.8      0.8                            1395900200404 
1123.73    0.08          14.5      0.8                            1395900200405 
1125.62    0.12          10.2      0.8                            1395900200406 
1128.78    0.09          12.8      0.9                            1395900200407 
1130.71    0.21           5.8      1.0                            1395900200408 
1134.35    0.12          12.1      1.1                            1395900200409 
1136.18    0.05          30.4      1.1                            1395900200410 
1139.54    0.04          26.3      0.9                            1395900200411 
1142.85    0.06          23.7      0.9                            1395900200412 
1144.85    0.15           8.9      0.9                            1395900200413 
1148.23    0.04          27.7      1.1                            1395900200414 
1150.64    0.11          10.4      1.3                            1395900200415 
1153.61    0.03          29.2      0.9                            1395900200416 
1156.60    0.12           9.4      0.9                            1395900200417 
1158.5     0.3            5.0      1.0                            1395900200418 
1162.34    0.04          36.8      1.0                            1395900200419 
1164.92    0.15           4.3      1.0                            1395900200420 
1167.76    0.18           6.0      0.9                            1395900200421 
1170.69    0.10          11.1      1.1                            1395900200422 
1174.37    0.05          23.2      1.0                            1395900200423 
1180.69    0.04          33.2      0.9                            1395900200424 
1186.2     0.3            5.6      1.1                            1395900200425 
1187.54    0.14          10.8      1.2                            1395900200426 
1190.44    0.17           5.2      0.6                            1395900200427 
1192.89    0.03          43.3      0.7                            1395900200428 
1197.20    0.25           4.7      1.0                            1395900200429 
1201.39    0.04          24.1      1.0                            1395900200430 
1205.11    0.07          24.4      1.0                            1395900200431 
1207.07    0.14          11.2      1.0                            1395900200432 
1210.61    0.15          13.2      1.2                            1395900200433 
1212.3     0.3            8.9      1.1                            1395900200434 
1214.47    0.13          14.4      0.9                            1395900200435 
1216.76    0.04          40.7      1.0                            1395900200436 
1223.8     0.3            4.7      0.8                            1395900200437 
1230.0     0.3            8.3      1.9                            1395900200438 
1231.4     0.3            9.8      1.9                            1395900200439 
1234.96    0.11          14.8      1.0                            1395900200440 
1237.01    0.12          16.9      1.0                            1395900200441 
1239.19    0.23           7.0      1.0                            1395900200442 
1245.23    0.07          27.3      1.5                            1395900200443 
1252.84    0.18          10.9      1.7                            1395900200444 
1257.9     0.3           15.       3.                             1395900200445 
1271.2     1.7            3.       3.                             1395900200446 
1276.58    0.23           6.5      1.0                            1395900200447 
1278.90    0.07          20.8      0.9                            1395900200448 
1283.7     0.4            3.10     0.10                           1395900200449 
1286.06    0.13          11.9      1.1                            1395900200450 
1293.36    0.03          91.8      1.1                            1395900200451 
1299.53    0.05          31.0      0.9                            1395900200452 
1301.98    0.20           7.5      0.8                            1395900200453 
1304.79    0.12          11.4      0.8                            1395900200454 
1308.91    0.14          13.8      1.1                            1395900200455 
1310.7     0.4            5.2      1.1                            1395900200456 
1313.48    0.13          10.5      1.0                            1395900200457 
1317.38    0.17           7.3      1.1                            1395900200458 
1325.28    0.05          36.6      1.1                            1395900200459 
1328.37    0.11          15.10     0.10                           1395900200460 
1330.94    0.22           7.8      1.0                            1395900200461 
1335.00    0.16           9.3      1.2                            1395900200462 
1340.06    0.21           8.9      1.2                            1395900200463 
1342.40    0.11          18.3      1.2                            1395900200464 
1344.81    0.19          13.5      1.5                            1395900200465 
1346.68    0.24          10.5      1.5                            1395900200466 
1352.90    0.12          11.3      1.0                            1395900200467 
1357.32    0.14          12.5      1.0                            1395900200468 
1359.6     0.3            6.4      1.0                            1395900200469 
1362.14    0.14           3.1      1.7                            1395900200470 
1363.83    0.21          14.4      1.5                            1395900200471 
1366.27    0.22           8.3      1.2                            1395900200472 
1370.83    0.15           8.9      1.1                            1395900200473 
1373.67    0.11          14.9      0.9                            1395900200474 
1375.68    0.10          16.6      1.0                            1395900200475 
1380.48    0.10          11.9      1.0                            1395900200476 
1383.25    0.11          11.0      0.9                            1395900200477 
1386.01    0.05          27.7      0.8                            1395900200478 
1388.78    0.11          11.10     0.08                           1395900200479 
1391.40    0.13          11.1      0.9                            1395900200480 
1393.62    0.14          10.3      0.9                            1395900200481 
1399.73    0.19           5.8      0.8                            1395900200482 
1403.35    0.08          14.3      0.7                            1395900200483 
1408.12    0.12           9.5      0.7                            1395900200484 
1412.2     0.3            4.4      0.8                            1395900200485 
1414.9     0.4            3.3      0.9                            1395900200486 
1419.77    0.15          11.2      1.2                            1395900200487 
1424.6     0.6            6.       3.                             1395900200488 
1425.9     0.5            8.       3.                             1395900200489 
1430.91    0.10          13.1      0.8                            1395900200490 
1434.11    0.12          10.2      0.8                            1395900200491 
1438.85    0.06          20.5      0.8                            1395900200492 
1443.20    0.15           7.9      0.8                            1395900200493 
1447.17    0.08          15.5      0.8                            1395900200494 
1451.2     0.4            4.6      1.0                            1395900200495 
1453.1     0.3            5.1      1.0                            1395900200496 
1458.12    0.13          10.7      0.8                            1395900200497 
1460.15    0.19           7.2      0.8                            1395900200498 
1467.36    0.06          22.4      1.1                            1395900200499 
1471.34    0.11          11.8      0.9                            1395900200500 
1475.7     0.3            3.10     0.10                           1395900200501 
1479.19    0.09          14.10     0.11                           1395900200502 
1482.59    0.19           7.3      1.4                            1395900200503 
1487.12    0.14          13.5      1.3                            1395900200504 
1497.67    0.14           8.4      0.9                            1395900200505 
1502.48    0.17           6.8      0.8                            1395900200506 
1505.97    0.10          12.8      0.8                            1395900200507 
1512.14    0.03          11.       0.5                            1395900200508 
1519.50    0.18           8.0      1.1                            1395900200509 
1522.8     0.4            3.3      1.0                            1395900200510 
1532.2     0.5            2.10     0.08                           1395900200511 
1536.0     0.3            4.5      0.9                            1395900200512 
1542.32    0.24           6.5      0.9                            1395900200513 
1544.42    0.16          10.6      0.9                            1395900200514 
1547.04    0.19           8.4      0.8                            1395900200515 
1549.25    0.15           9.10     0.08                           1395900200516 
1552.9     0.3            3.7      0.7                            1395900200517 
1559.3     0.4            1.3      0.7                            1395900200518 
1564.33    0.20           5.5      0.7                            1395900200519 
1570.32    0.12          14.1      1.1                            1395900200520 
1576.69    0.16           9.7      1.0                            1395900200521 
1582.5     0.5            2.7      0.8                            1395900200522 
1587.9     0.3            4.6      0.8                            1395900200523 
1596.8     0.7            2.3      1.0                            1395900200524 
1602.34    0.17           9.8      1.0                            1395900200525 
1606.60    0.21           7.9      0.9                            1395900200526 
1612.0     0.3            4.9      0.9                            1395900200527 
1618.05    0.13          13.4      1.0                            1395900200528 
1631.4     0.3            6.3      0.9                            1395900200529 
1634.26    0.14          11.7      0.9                            1395900200530 
1644.52    0.18           8.6      0.8                            1395900200531 
1648.1     0.3            5.6      0.8                            1395900200532 
1652.4     0.3            4.7      0.8                            1395900200533 
1657.47    0.08          20.1      0.9                            1395900200534 
1670.03    0.15          10.3      0.9                            1395900200535 
1678.3     0.3            3.9      0.9                            1395900200536 
1693.6     0.3            5.6      0.9                            1395900200537 
1699.4     0.4            3.6      0.9                            1395900200538 
1704.0     0.3            6.0      0.9                            1395900200539 
1710.81    0.08          24.3      1.1                            1395900200540 
1713.73    0.15          12.10     0.10                           1395900200541 
1723.53    0.24           9.5      1.2                            1395900200542 
1726.1     0.4            5.3      1.1                            1395900200543 
1731.9     0.3            5.4      1.0                            1395900200544 
1739.7     0.5            3.7      1.0                            1395900200545 
1745.58    0.22           8.6      1.0                            1395900200546 
1757.75    0.19           8.1      0.9                            1395900200547 
1760.50    0.23           6.5      0.9                            1395900200548 
1764.79    0.19           6.9      0.8                            1395900200549 
1769.9     0.3            5.4      0.8                            1395900200550 
1772.8     0.4            3.6      0.8                            1395900200551 
1778.94    0.11          13.8      0.8                            1395900200552 
1782.3     0.3            4.4      0.8                            1395900200553 
1786.35    0.23           6.0      0.9                            1395900200554 
1791.8     0.3            4.8      0.9                            1395900200555 
1803.9     0.3            5.1      0.9                            1395900200556 
1809.36    0.15          11.4      1.1                            1395900200557 
1812.2     0.3            4.5      1.0                            1395900200558 
1815.7     0.3            4.8      0.9                            1395900200559 
1819.5     0.3            6.3      1.1                            1395900200560 
1821.55    0.25           9.2      1.1                            1395900200561 
1824.6     0.3            6.3      1.0                            1395900200562 
1827.09    0.23           7.1      1.0                            1395900200563 
1834.9     0.3            5.6      0.9                            1395900200564 
1838.5     0.3            4.5      0.8                            1395900200565 
1842.0     0.4            5.1      0.9                            1395900200566 
1844.50    0.20          10.1      1.0                            1395900200567 
1847.61    0.16           4.0      1.1                            1395900200568 
1854.59    0.24           7.6      1.1                            1395900200569 
1859.20    0.21           9.3      1.1                            1395900200570 
1862.7     0.5            4.2      1.1                            1395900200571 
1867.6     0.5            4.6      1.2                            1395900200572 
1870.1     0.3            7.2      1.2                            1395900200573 
1874.8     0.3            5.1      1.0                            1395900200574 
1877.90    0.15           9.0      0.9                            1395900200575 
1884.88    0.19           2.7      0.8                            1395900200576 
1891.35    0.24           5.7      0.9                            1395900200577 
1896.4     0.4            3.8      1.1                            1395900200578 
1902.45    0.23           7.4      1.0                            1395900200579 
1909.0     0.3            6.2      0.9                            1395900200580 
1916.4     0.4            4.1      1.2                            1395900200581 
1924.0     0.5            3.1      0.8                            1395900200582 
1930.60    0.21           6.10     0.08                           1395900200583 
1939.8     0.5            3.1      0.8                            1395900200584 
1946.8     0.8            1.10     0.10                           1395900200585 
1953.6     0.3            5.8      0.9                            1395900200586 
1960.0     0.4            2.2      0.9                            1395900200587 
1965.64    0.24           7.1      0.9                            1395900200588 
1974.7     1.1            1.5      1.0                            1395900200589 
1982.4     0.4            4.6      1.1                            1395900200590 
1986.4     0.8            2.6      1.1                            1395900200591 
1991.65    0.24           8.7      1.3                            1395900200592 
2006.0     0.5            4.2      1.2                            1395900200593 
2013.2     0.3            5.4      0.8                            1395900200594 
2022.9     0.3            9.6      1.4                            1395900200595 
2025.6     0.3            9.4      1.3                            1395900200596 
2032.75    0.18          11.6      1.1                            1395900200597 
2046.3     0.3            7.4      1.1                            1395900200598 
2048.7     0.4            5.3      1.1                            1395900200599 
2057.5     0.4            4.5      0.9                            1395900200600 
2062.8     0.9            2.0      0.9                            1395900200601 
2066.6     0.3            6.9      0.9                            1395900200602 
2070.0     0.8            2.3      0.9                            1395900200603 
2077.6     0.3            7.1      1.0                            1395900200604 
2087.2     0.4            4.2      0.9                            1395900200605 
2090.03    0.20           9.3      0.9                            1395900200606 
2092.89    0.13          12.6      0.8                            1395900200607 
2097.0     0.3            5.4      0.7                            1395900200608 
2099.84    0.19           7.9      0.7                            1395900200609 
2116.9     0.4            4.9      1.0                            1395900200610 
2124.12    0.19          10.4      1.1                            1395900200611 
2127.9     0.3            6.6      1.1                            1395900200612 
2130.7     0.4            6.4      1.1                            1395900200613 
2137.52    0.13          17.2      1.1                            1395900200614 
2140.41    0.25           9.2      1.1                            1395900200615 
2148.3     0.3            7.7      1.1                            1395900200616 
2153.90    0.24           8.2      1.0                            1395900200617 
2159.64    0.25           7.9      1.0                            1395900200618 
2163.7     0.5            4.3      1.1                            1395900200619 
2174.94    0.25           7.7      1.0                            1395900200620 
2179.56    0.24           7.9      1.0                            1395900200621 
2184.8     0.3            6.9      0.9                            1395900200622 
2192.01    0.22           8.5      1.0                            1395900200623 
2204.7     0.5            4.7      1.1                            1395900200624 
2207.8     0.6            3.5      1.1                            1395900200625 
2213.1     0.4            5.2      1.3                            1395900200626 
2231.1     0.5            3.8      1.1                            1395900200627 
2234.8     0.5            4.1      1.0                            1395900200628 
2248.51    0.24           7.5      0.9                            1395900200629 
2253.25    0.20           9.1      0.9                            1395900200630 
2263.4     0.8            3.2      1.1                            1395900200631 
2266.0     0.5            4.5      1.1                            1395900200632 
2274.4     0.5            3.10     0.10                           1395900200633 
2281.3     0.3            7.6      0.9                            1395900200634 
2284.8     0.6            3.5      0.9                            1395900200635 
2289.4     0.4            4.8      0.9                            1395900200636 
2302.5     0.5            3.6      1.0                            1395900200637 
2308.3     0.3            5.8      0.9                            1395900200638 
2320.4     0.3            4.8      0.8                            1395900200639 
2329.7     0.3            5.10     0.08                           1395900200640 
2332.8     0.6            3.9      0.9                            1395900200641 
2335.9     0.5            4.0      0.8                            1395900200642 
2340.5     0.3            6.5      0.8                            1395900200643 
2344.6     0.3            5.2      0.8                            1395900200644 
2352.7     0.4            3.9      0.9                            1395900200645 
2362.4     0.3            6.2      1.0                            1395900200646 
2370.7     0.3            7.10     0.10                           1395900200647 
2373.8     0.5            4.1      0.9                            1395900200648 
2378.48    0.19          10.4      0.9                            1395900200649 
2387.8     0.3            6.2      0.9                            1395900200650 
2394.43    0.19          10.2      1.0                            1395900200651 
2404.92    0.21           8.5      0.9                            1395900200652 
2408.1     0.3            7.6      0.9                            1395900200653 
2411.31    0.24           7.2      0.8                            1395900200654 
2417.0     0.3            6.4      0.8                            1395900200655 
2420.9     0.7            2.6      0.8                            1395900200656 
2424.4     0.3            6.3      0.8                            1395900200657 
2428.09    0.17           9.8      0.8                            1395900200658 
2436.3     0.4            5.8      1.1                            1395900200659 
2441.5     0.4            4.8      1.0                            1395900200660 
2448.0     0.3            5.9      1.0                            1395900200661 
2455.9     0.4            4.6      0.9                            1395900200662 
2460.5     0.5            4.5      0.9                            1395900200663 
2477.28    0.14          14.5      1.0                            1395900200664 
2484.4     0.3            8.1      1.0                            1395900200665 
2492.2     0.4            5.0      1.0                            1395900200666 
2501.1     0.3            4.8      0.9                            1395900200667 
2508.41    0.15          11.1      0.8                            1395900200668 
2513.5     0.5            3.1      0.7                            1395900200669 
2527.37    0.25           7.4      1.0                            1395900200670 
2533.2     0.4            4.3      0.9                            1395900200671 
2538.13    0.23           7.8      1.0                            1395900200672 
2544.7     0.3            7.3      1.2                            1395900200673 
2548.1     0.3            6.6      1.3                            1395900200674 
2555.23    0.24           6.9      0.8                            1395900200675 
2558.45    0.16          10.3      0.7                            1395900200676 
2566.3     0.3            4.7      0.7                            1395900200677 
2569.8     0.4            4.4      0.7                            1395900200678 
2574.2     0.4            3.10     0.08                           1395900200679 
2590.5     0.3            9.6      1.2                            1395900200680 
2593.3     0.4            7.1      1.2                            1395900200681 
2604.60    0.25           9.3      1.1                            1395900200682 
2609.79    0.24           9.7      1.2                            1395900200683 
2617.9     0.3            5.4      0.7                            1395900200684 
2621.5     0.4            3.4      0.7                            1395900200685 
2631.2     0.4            3.7      0.7                            1395900200686 
2641.0     0.3            7.6      1.1                            1395900200687 
2644.48    0.21          10.9      1.0                            1395900200688 
2650.8     0.4            5.4      1.0                            1395900200689 
2661.65    0.17          11.10     0.09                           1395900200690 
2671.7     0.3            9.4      1.1                            1395900200691 
2674.8     0.3            8.8      1.1                            1395900200692 
2694.3     0.3            8.1      1.1                            1395900200693 
2697.4     0.5            5.3      1.1                            1395900200694 
2709.5     0.5            4.3      1.3                            1395900200695 
2713.8     0.7            3.9      1.1                            1395900200696 
2717.1     0.4            6.2      1.1                            1395900200697 
2722.2     0.3            7.3      1.0                            1395900200698 
2732.23    0.22           8.8      1.1                            1395900200699 
2745.6     0.3            5.7      1.0                            1395900200700 
2757.51    0.22           8.4      0.9                            1395900200701 
2761.7     0.3            8.2      1.0                            1395900200702 
2764.6     0.3            9.2      1.0                            1395900200703 
2768.0     0.5            4.6      0.9                            1395900200704 
2773.58    0.19          11.3      1.1                            1395900200705 
2776.65    0.20          11.4      1.2                            1395900200706 
2782.5     0.3            6.6      0.8                            1395900200707 
2786.12    0.20          11.3      0.9                            1395900200708 
2789.2     0.3            6.9      0.9                            1395900200709 
2796.6     0.3            5.8      0.8                            1395900200710 
2800.60    0.22           8.0      0.8                            1395900200711 
2807.8     0.3            7.4      0.9                            1395900200712 
2811.3     0.3            7.5      0.9                            1395900200713 
2818.4     0.5            4.2      1.1                            1395900200714 
2827.5     0.3            7.6      1.0                            1395900200715 
2830.9     0.4            5.9      1.0                            1395900200716 
2840.67    0.24           9.3      1.0                            1395900200717 
2846.33    0.20          11.5      1.0                            1395900200718 
2859.4     0.4            4.9      1.1                            1395900200719 
2870.02    0.22           8.3      0.9                            1395900200720 
2879.56    0.24           7.6      0.8                            1395900200721 
2886.3     0.4            5.3      0.8                            1395900200722 
2890.43    0.16          12.4      0.9                            1395900200723 
2897.1     0.3            7.4      0.9                            1395900200724 
2909.49    0.13          14.1      0.8                            1395900200725 
2918.06    0.22           7.9      0.8                            1395900200726 
2922.8     0.9            4.4      1.9                            1395900200727 
2928.28    0.23           8.7      0.9                            1395900200728 
2929.1     0.5            8.2      2.0                            1395900200729 
2934.7     0.4            4.2      0.8                            1395900200730 
2945.1     0.3            4.5      0.9                            1395900200731 
2952.0     0.4            3.8      0.9                            1395900200732 
2957.1     0.4            5.3      0.8                            1395900200733 
2960.2     0.4            6.1      0.8                            1395900200734 
2963.6     0.3            6.0      0.7                            1395900200735 
2974.7     0.3            5.7      0.8                            1395900200736 
2978.2     0.3            7.1      0.9                            1395900200737 
2984.01    0.23           9.0      0.9                            1395900200738 
2987.15    0.19          13.8      1.0                            1395900200739 
2989.9     0.6            7.4      1.2                            1395900200740 
2991.3     0.4           12.       0.3                            1395900200741 
2992.3     0.4            6.7      1.2                            1395900200742 
2998.5     0.4            4.4      0.9                            1395900200743 
3012.67    0.16          11.1      0.8                            1395900200744 
3018.5     0.3            5.9      0.8                            1395900200745 
3024.8     0.3            6.3      0.9                            1395900200746 
3033.2     0.3            8.4      1.0                            1395900200747 
3036.3     0.3           11.8      1.1                            1395900200748 
3039.7     0.5            7.2      1.1                            1395900200749 
3042.6     0.4            7.1      1.1                            1395900200750 
3049.0     0.3            6.2      1.0                            1395900200751 
3058.6     0.3            9.10     0.15                           1395900200752 
3067.06    0.11          12.2      0.8                            1395900200753 
3071.5     0.3            5.8      0.8                            1395900200754 
3074.43    0.14          12.4      0.8                            1395900200755 
3079.96    0.11          13.5      0.9                            1395900200756 
3083.66    0.17           8.7      1.0                            1395900200757 
3089.13    0.13          13.3      1.4                            1395900200758 
3094.8     0.3            8.10     0.11                           1395900200759 
3102.6     0.3            8.1      1.2                            1395900200760 
3105.7     0.3            8.10     0.13                           1395900200761 
3115.53    0.25           9.1      1.0                            1395900200762 
3120.48    0.22          12.10     0.11                           1395900200763 
3123.9     0.5            6.4      1.1                            1395900200764 
3127.2     0.4            6.5      1.1                            1395900200765 
3135.0     0.3            7.5      1.0                            1395900200766 
3141.8     0.7            7.5      2.5                            1395900200767 
3143.90    0.23           7.4      0.9                            1395900200768 
3148.1     0.5            8.8      2.2                            1395900200769 
3149.3     0.3            7.1      0.8                            1395900200770 
3155.55    0.09          18.1      0.8                            1395900200771 
3160.51    0.20           8.5      0.8                            1395900200772 
3164.4     0.6            7.8      2.2                            1395900200773 
3166.55    0.16          10.3      0.8                            1395900200774 
3172.72    0.13          19.9      1.0                            1395900200775 
3174.83    0.03          16.5      1.2                            1395900200776 
3188.4     0.6            7.5      2.2                            1395900200777 
3198.0     0.5            9.7      2.2                            1395900200778 
3210.3     0.5            8.9      2.2                            1395900200779 
3225.8     0.5           12.       3.                             1395900200780 
3233.4     0.8            7.       3.                             1395900200781 
3244.2     0.4           15.       3.                             1395900200782 
3265.8     0.9            6.       3.                             1395900200783 
3270.7     0.6            9.       3.                             1395900200784 
3278.9     0.3           12.1      2.3                            1395900200785 
3285.1     0.4           10.0      2.0                            1395900200786 
3289.0     0.6            6.5      2.0                            1395900200787 
3302.9     0.9            4.2      2.0                            1395900200788 
3311.6     0.6           11.       3.                             1395900200789 
3314.7     0.6           11.       3.                             1395900200790 
3321.6     0.6            9.       3.                             1395900200791 
3329.4     1.0            5.6      2.5                            1395900200792 
3332.1     0.9            6.1      2.4                            1395900200793 
3341.38    0.22          20.0      2.2                            1395900200794 
3347.0     0.3           14.2      2.1                            1395900200795 
3360.90    0.25          16.9      2.0                            1395900200796 
3367.9     0.4            9.6      2.0                            1395900200797 
3379.0     0.5            9.2      2.2                            1395900200798 
3381.9     0.5           10.8      2.3                            1395900200799 
3395.4     0.3           14.1      2.0                            1395900200800 
3401.8     0.6            6.6      1.8                            1395900200801 
3407.0     0.3           17.2      2.0                            1395900200802 
3410.1     0.3           16.9      2.0                            1395900200803 
3419.17    0.23          17.3      1.9                            1395900200804 
3426.0     0.3           12.5      1.9                            1395900200805 
3440.6     0.3           20.       3.                             1395900200806 
3443.8     0.4           15.       3.                             1395900200807 
3450.2     0.4           13.       3.                             1395900200808 
3453.1     0.4           17.       3.                             1395900200809 
3460.6     2.1            3.       3.                             1395900200810 
3473.1     0.7            9.       3.                             1395900200811 
3476.6     0.5           12.       3.                             1395900200812 
3495.1     0.9            5.2      2.1                            1395900200813 
3501.2     0.6            7.2      2.1                            1395900200814 
3509.9     0.3           15.7      2.2                            1395900200815 
3522.7     0.6            9.3      2.3                            1395900200816 
3525.8     0.5           10.6      2.4                            1395900200817 
3536.4     0.3            9.6      1.7                            1395900200818 
3542.6     0.4            7.4      1.6                            1395900200819 
3557.2     0.4            8.3      1.5                            1395900200820 
3563.0     0.4            8.4      1.5                            1395900200821 
3573.8     0.3            8.9      1.5                            1395900200822 
3586.1     0.6            8.1      2.4                            1395900200823 
3591.5     0.4           13.6      2.5                            1395900200824 
3600.7     0.3           19.       3.                             1395900200825 
3605.6     0.4           14.6      2.5                            1395900200826 
3613.80    0.18          32.       3.                             1395900200827 
3621.79    0.23          20.4      2.3                            1395900200828 
3633.2     0.9            5.0      2.0                            1395900200829 
3658.2     0.5            8.4      2.0                            1395900200830 
3672.1     1.1            5.       3.                             1395900200831 
3695.81    0.11          20.3      1.2                            1395900200832 
3736.08    0.24          14.0      1.8                            1395900200833 
3756.5     0.4           14.7      2.5                            1395900200834 
3763.4     0.7            7.2      2.4                            1395900200835 
3768.8     0.6            9.1      2.4                            1395900200836 
3779.4     0.5            7.2      1.8                            1395900200837 
3784.3     0.3           11.5      1.8                            1395900200838 
3788.9     0.4            9.2      1.8                            1395900200839 
3793.3     0.4            8.7      1.8                            1395900200840 
3803.8     0.4           10.9      1.8                            1395900200841 
3809.41    0.23          19.4      1.9                            1395900200842 
3812.9     0.8            5.4      1.7                            1395900200843 
3821.3     0.5            7.6      1.7                            1395900200844 
3832.5     0.5            7.9      1.7                            1395900200845 
3836.8     0.5            7.5      1.7                            1395900200846 
3852.1     0.5            7.9      1.7                            1395900200847 
3863.75    0.24          18.7      2.0                            1395900200848 
3876.4     0.5            8.6      1.9                            1395900200849 
3881.5     0.4           11.3      1.9                            1395900200850 
3886.2     0.6            6.7      1.9                            1395900200851 
3891.3     0.5            9.1      1.9                            1395900200852 
3904.3     0.5            7.6      1.7                            1395900200853 
3909.3     0.4            9.2      1.7                            1395900200854 
3915.98    0.21          19.7      1.8                            1395900200855 
3920.2     0.3           11.6      1.8                            1395900200856 
3927.09    0.21          18.10     0.18                           1395900200857 
3932.6     0.3           22.       3.                             1395900200858 
3934.9     0.6            9.       3.                             1395900200859 
3940.9     0.4            9.3      2.0                            1395900200860 
3949.71    0.21          18.7      1.8                            1395900200861 
3957.1     0.7            4.8      1.6                            1395900200862 
3969.2     0.5            7.8      1.8                            1395900200863 
3985.1     0.3           15.0      2.0                            1395900200864 
3998.3     0.6            7.6      1.9                            1395900200865 
4009.7     0.5            9.7      1.9                            1395900200866 
4014.7     0.4           10.3      1.9                            1395900200867 
4021.1     0.4           10.9      1.9                            1395900200868 
4034.7     0.3           16.6      2.0                            1395900200869 
4041.60    0.21          22.5      2.1                            1395900200870 
4045.7     0.3           14.2      2.0                            1395900200871 
4065.61    0.16          21.5      1.6                            1395900200872 
4072.00    0.14          25.0      1.6                            1395900200873 
4082.94    0.22          15.2      1.7                            1395900200874 
4096.3     0.3           21.3      2.4                            1395900200875 
4102.3     0.4           12.1      2.2                            1395900200876 
4115.4     0.3           15.10     0.23                           1395900200877 
4128.82    0.25          10.4      1.3                            1395900200878 
4133.61    0.24          10.7      1.3                            1395900200879 
4138.8     0.4            7.3      1.3                            1395900200880 
4143.33    0.20          15.2      1.4                            1395900200881 
4147.01    0.19          16.1      1.4                            1395900200882 
4163.6     0.3           14.7      1.8                            1395900200883 
4167.0     0.7            6.1      1.7                            1395900200884 
4172.3     0.4            8.5      1.6                            1395900200885 
4184.0     0.4           10.7      1.9                            1395900200886 
4192.86    0.22          20.7      2.1                            1395900200887 
4206.6     0.6            7.4      1.9                            1395900200888 
4212.0     0.3           13.10     0.20                           1395900200889 
4216.6     0.4           12.8      1.9                            1395900200890 
4228.28    0.21          16.9      1.7                            1395900200891 
4235.2     0.3           17.2      1.9                            1395900200892 
4238.29    0.15          32.5      2.0                            1395900200893 
4244.5     0.5            7.4      1.5                            1395900200894 
4248.9     0.4           10.1      1.8                            1395900200895 
4253.3     0.3           11.7      1.8                            1395900200896 
4259.1     0.3           12.3      1.8                            1395900200897 
4266.95    0.10          45.3      2.3                            1395900200898 
4272.5     0.3           10.8      1.8                            1395900200899 
4282.4     0.3           21.5      2.3                            1395900200900 
4285.0     0.4           14.9      2.2                            1395900200901 
4291.2     0.3           14.6      1.6                            1395900200902 
4296.7     0.4            8.4      1.6                            1395900200903 
4304.1     0.3           11.4      1.6                            1395900200904 
4312.84    0.24          15.4      1.6                            1395900200905 
4329.8     0.3            8.6      1.4                            1395900200906 
4336.74    0.16          19.6      1.4                            1395900200907 
4344.2     0.5            5.10     0.12                           1395900200908 
4357.93    0.12          27.2      1.4                            1395900200909 
4366.3     0.3           10.6      1.3                            1395900200910 
4381.70    0.22          14.8      2.0                            1395900200911 
4383.69    0.16          27.4      2.3                            1395900200912 
4388.8     0.4            6.7      1.2                            1395900200913 
4398.9     0.3           10.9      1.3                            1395900200914 
4404.26    0.14          21.0      1.4                            1395900200915 
4409.5     0.3           11.1      1.3                            1395900200916 
4418.59    0.18          16.7      1.4                            1395900200917 
4433.85    0.20          32.       3.                             1395900200918 
4446.3     0.3           18.       3.                             1395900200919 
4455.56    0.13          25.3      1.7                            1395900200920 
4462.1     0.5           20.       6.                             1395900200921 
4464.00    0.19          62.       6.                             1395900200922 
4467.7     0.5            8.2      1.6                            1395900200923 
4472.68    0.15          22.8      1.7                            1395900200924 
4480.10    0.14          20.7      1.3                            1395900200925 
4484.81    0.21          13.6      1.2                            1395900200926 
4491.2     0.3            9.2      1.2                            1395900200927 
4496.0     0.5            7.8      1.5                            1395900200928 
4498.88    0.22          17.10     0.15                           1395900200929 
4506.96    0.21          24.1      2.0                            1395900200930 
4508.75    0.3            1.       3.                             1395900200931 
4511.83    0.11          33.9      1.5                            1395900200932 
4522.1     0.3           10.0      1.4                            1395900200933 
4539.6     0.4            9.4      1.4                            1395900200934 
4543.4     0.3           10.0      1.5                            1395900200935 
4553.96    0.15          19.9      1.4                            1395900200936 
4560.38    0.18          16.0      1.3                            1395900200937 
4567.73    0.24          25.       3.                             1395900200938 
4570.3     0.3           23.7      2.3                            1395900200939 
4573.2     0.3           14.1      1.9                            1395900200940 
4586.35    0.17          21.6      1.6                            1395900200941 
4592.5     0.4            7.6      1.5                            1395900200942 
4600.9     0.5            6.3      1.5                            1395900200943 
4607.0     0.5            6.10     0.14                           1395900200944 
4618.05    0.11          32.7      1.6                            1395900200945 
4626.4     0.4            9.4      1.4                            1395900200946 
4630.0     0.5            7.6      1.3                            1395900200947 
4637.0     0.3            9.6      1.3                            1395900200948 
4641.90    0.23          17.1      1.5                            1395900200949 
4645.3     0.5            7.6      1.4                            1395900200950 
4653.2     0.3            9.6      1.3                            1395900200951 
4658.88    0.21          18.6      1.4                            1395900200952 
4662.67    0.18          21.1      1.4                            1395900200953 
4670.70    0.22          14.4      1.3                            1395900200954 
4679.0     0.3           18.7      2.0                            1395900200955 
4681.7     0.3           18.3      2.1                            1395900200956 
4689.1     0.6            4.7      1.2                            1395900200957 
4700.4     0.4            7.3      1.2                            1395900200958 
4719.9     0.4           16.       3.                             1395900200959 
4722.50    0.18          44.       3.                             1395900200960 
4729.7     0.4           18.       3.                             1395900200961 
4732.2     0.3           28.       3.                             1395900200962 
4740.4     0.4           18.       3.                             1395900200963 
4744.2     0.3           21.3      2.4                            1395900200964 
4752.62    0.18          27.9      2.1                            1395900200965 
4773.50    0.18          21.10     0.17                           1395900200966 
4782.6     0.3           11.6      1.5                            1395900200967 
4795.27    0.16          23.4      1.6                            1395900200968 
4810.7     0.3           10.6      1.2                            1395900200969 
4823.9     0.4           13.9      1.9                            1395900200970 
4826.80    0.25          20.9      1.9                            1395900200971 
4839.28    0.05          82.3      2.2                            1395900200972 
4852.8     0.3            9.9      1.2                            1395900200973 
4861.1     0.5           10.5      1.7                            1395900200974 
4864.3     0.4           12.4      1.7                            1395900200975 
4873.28    0.21          17.8      1.5                            1395900200976 
4901.64    0.19          19.10     0.15                           1395900200977 
4906.2     0.5            8.4      1.3                            1395900200978 
4910.3     0.5            8.1      1.3                            1395900200979 
4915.52    0.14          27.4      1.6                            1395900200980 
4925.65    0.23          14.9      1.6                            1395900200981 
4936.60    0.11          25.9      1.3                            1395900200982 
4954.8     0.5            8.10     0.21                           1395900200983 
4968.58    0.13          19.8      1.2                            1395900200984 
4975.04    0.8           36.1      1.3                            1395900200985 
4979.25    0.15          18.9      1.1                            1395900200986 
4988.7     0.3           11.3      1.1                            1395900200987 
4992.4     0.4            8.8      1.2                            1395900200988 
4995.9     0.3           14.8      1.3                            1395900200989 
4999.4     0.6            5.7      1.2                            1395900200990 
5010.80    0.19          22.0      1.7                            1395900200991 
5015.25    0.20          21.1      1.6                            1395900200992 
5033.40    0.16          24.5      1.5                            1395900200993 
5046.81    0.18          20.9      1.5                            1395900200994 
5057.5     0.4            9.6      1.4                            1395900200995 
5063.84    0.15          26.2      1.5                            1395900200996 
5070.6     0.5            6.5      1.3                            1395900200997 
5094.12    0.12          52.       3.                             1395900200998 
5110.68    0.12          25.8      1.3                            1395900200999 
5120.7     0.4            7.1      1.3                            1395900201000 
5129.08    0.09          39.2      1.5                            1395900201001 
5139.7     0.3            9.4      1.1                            1395900201002 
5153.03    0.16          18.6      1.2                            1395900201003 
5168.57    0.08          47.4      1.5                            1395900201004 
5174.6     0.3           10.5      1.1                            1395900201005 
5185.5     0.3            9.8      1.1                            1395900201006 
5194.1     0.3            9.2      1.1                            1395900201007 
5216.05    0.07          30.3      0.8                            1395900201008 
5222.09    0.12          14.6      0.7                            1395900201009 
5229.6     0.3            6.4      0.6                            1395900201010 
5241.4     0.4            3.10     0.06                           1395900201011 
5245.78    0.20           9.3      0.7                            1395900201012 
5254.1     0.3            5.5      0.8                            1395900201013 
5258.79    0.19           9.10     0.08                           1395900201014 
5265.87    0.13          19.1      1.0                            1395900201015 
5269.4     0.3            0.9      1.0                            1395900201016 
5285.2     0.7            3.8      1.0                            1395900201017 
5290.2     0.8            3.4      1.0                            1395900201018 
5297.6     0.4            2.5      1.1                            1395900201019 
5306.2     0.3            9.10     0.11                           1395900201020 
5319.4     0.3            9.8      1.1                            1395900201021 
5324.21    0.22          14.3      1.1                            1395900201022 
5340.8     0.8            3.8      1.0                            1395900201023 
5344.7     0.6            4.9      1.0                            1395900201024 
5351.7     0.6            4.1      1.0                            1395900201025 
5371.91    0.09          36.9      1.3                            1395900201026 
5383.8     0.5            4.0      0.9                            1395900201027 
5389.65    0.16          27.7      1.7                            1395900201028 
5392.45    0.11          40.8      1.8                            1395900201029 
5401.68    0.11          20.7      0.9                            1395900201030 
5411.81    0.03         208.6      2.4                            1395900201031 
5420.8     0.3            6.0      0.8                            1395900201032 
5434.94    0.13          41.9      2.0                            1395900201033 
5437.9     0.3           18.4      1.8                            1395900201034 
5452.8     0.3            9.5      1.1                            1395900201035 
5457.1     0.6            5.6      1.1                            1395900201036 
5460.9     0.4            7.8      1.1                            1395900201037 
5468.91    0.04         111.5      2.2                            1395900201038 
5496.2     0.3           10.2      1.0                            1395900201039 
5518.51    0.06          63.7      1.6                            1395900201040 
5528.3     0.6            4.5      0.9                            1395900201041 
5551.47    0.08          32.8      1.1                            1395900201042 
5577.2     0.6            5.10     0.11                           1395900201043 
5580.9     0.7            5.10     0.11                           1395900201044 
5584.9     0.5            6.7      1.0                            1395900201045 
5595.7     0.3            9.6      1.1                            1395900201046 
5605.3     0.6            2.9      0.7                            1395900201047 
5613.4     0.5            3.8      0.7                            1395900201048 
5621.35    0.19          10.3      0.8                            1395900201049 
5637.2     0.3            6.4      0.7                            1395900201050 
5655.57    0.15          20.5      1.2                            1395900201051 
5659.94    0.08          47.2      1.6                            1395900201052 
5664.7     0.3            9.9      0.9                            1395900201053 
5696.73    0.03         151.10     0.24                           1395900201054 
5713.81    0.08          37.1      1.2                            1395900201055 
5720.65    0.12          22.9      1.1                            1395900201056 
5727.90    0.22          11.4      1.0                            1395900201057 
5754.59    0.05         101.9      2.1                            1395900201058 
5764.78    0.24          12.10     0.12                           1395900201059 
5772.4     0.6            4.7      1.1                            1395900201060 
5792.95    0.16          20.2      1.2                            1395900201061 
5811.7     0.4            5.2      0.8                            1395900201062 
5835.2     0.3            6.7      0.8                            1395900201063 
5878.32    0.08          46.6      1.4                            1395900201064 
5899.51    0.17           7.6      0.5                            1395900201065 
5907.4     0.6            2.2      0.5                            1395900201066 
5911.3     0.6            2.5      0.5                            1395900201067 
5927.0     0.3            6.3      0.7                            1395900201068 
5935.45    0.13          17.5      0.8                            1395900201069 
5943.25    0.09          25.4      0.9                            1395900201070 
5981.13    0.23           6.3      0.6                            1395900201071 
6017.4     0.6            1.3      0.5                            1395900201072 
6055.64    0.20           9.0      0.7                            1395900201073 
6063.7     0.4            3.6      0.6                            1395900201074 
6084.13    0.24           5.6      0.5                            1395900201075 
6125.16    0.13          15.9      0.9                            1395900201076 
6130.46    0.19           9.9      0.7                            1395900201077 
6165.09    0.18           9.1      0.6                            1395900201078 
6184.47    0.17          10.0      0.6                            1395900201079 
6212.7     0.4            3.5      0.5                            1395900201080 
6219.97    0.05          58.1      1.3                            1395900201081 
6225.17    0.12          17.5      0.8                            1395900201082 
6250.85    0.14          12.5      0.6                            1395900201083 
6264.74    0.08          29.7      0.9                            1395900201084 
6270.6     0.6            7.8      0.6                            1395900201085 
6303.91    0.25           7.7      0.6                            1395900201086 
6308.5     0.4            4.6      0.5                            1395900201087 
6340.3     0.8            1.2      0.4                            1395900201088 
6364.5     0.4            2.9      0.4                            1395900201089 
6444.9     0.4            2.6      0.4                            1395900201090 
6470.2     0.4            2.9      0.4                            1395900201091 
6477.2     0.3            3.3      0.4                            1395900201092 
6501.1     0.3            3.6      0.4                            1395900201093 
6520.5     0.6            1.4      0.3                            1395900201094 
6564.26    0.10          17.1      0.7                            1395900201095 
6593.2     0.8            1.2      0.3                            1395900201096 
ENDDATA           1088          0                                 1395900201097 
ENDSUBENT         1096          0                                 1395900299999 
ENDENTRY             2          0                                 1395999999999 
