ENTRY            13982   20181102                             144413982  0    1 
SUBENT        13982001   20181102                             144413982  1    1 
BIB                 13        113                                 13982  1    2 
TITLE       Prompt fission neutron energy spectra induced by fast 13982  1    3 
            neutrons                                              13982  1    4 
AUTHOR     (P.Staples, J.J.Egan, G.H.R.Kegel, A.Mittler,          13982  1    5 
            M.L.Woodring)                                         13982  1    6 
REFERENCE  (J,NP/A,591,41,1995)                                   13982  1    7 
            P.Staples+, Main reference                            13982  1    8 
           (T,STAPLES,1993)                                       13982  1    9 
            P.Staples, Table of efficiency (Appendix B) and       13982  1   10 
            neutron spectra (Appendix C) given                    13982  1   11 
INSTITUTE  (1USALTI) Department of Physics and Applied Physics    13982  1   12 
FACILITY   (VDG,1USALTI) Radiation Laboratory 5.5 MV VdG          13982  1   13 
INC-SOURCE (P-LI7) 35+/-5 keV thick lithium evaporated on tanta1um13982  1   14 
CRITIQUE   T.N.Taddeucci et al. (2015): Multiple scattering       13982  1   15 
           effects are present and were likely severely           13982  1   16 
           underestimated in the data analysis.                   13982  1   17 
REL-REF    (C,,T.N.Taddeucci+,J,NDS,123,135,2015)                 13982  1   18 
METHOD     (TOF) Detector was 1.627 m from scatterer (sample).    13982  1   19 
                 TOF spectrometer was calibrated by neutrons from 13982  1   20 
                 7Li(p,n)7Be                                      13982  1   21 
                   at 0.50, 1.00, 1.49, 2.48, 2.98 and 3.47 MeV;  13982  1   22 
                 D(d,n)3He                                        13982  1   23 
                   at 5.88 MeV;                                   13982  1   24 
                 9Be(d,n)10B                                      13982  1   25 
                   at 6.94 MeV.                                   13982  1   26 
DETECTOR   (SCIN) Liquid scintillator BC-501, 90 deg to beam-line.13982  1   27 
CORRECTION  - Absolute efficiency was obtained by SCINFUL.        13982  1   28 
              It was compared with known efficiency of 235U       13982  1   29 
              fission chamber over 0.50-3.07 MeV.                 13982  1   30 
              ------------------------------------------------    13982  1   31 
                En      Efficiency         En      Efficiency     13982  1   32 
               (MeV)       (%)            (MeV)       (%)         13982  1   33 
              ------------------------------------------------    13982  1   34 
                0.5        2.15             5.8        8.16       13982  1   35 
                0.6        7.92             5.9        8.05       13982  1   36 
                0.7       11.20             6.0        8.03       13982  1   37 
                0.8       12.67             6.1        7.90       13982  1   38 
                0.9       13.45             6.2        7.89       13982  1   39 
                1.0       14.04             6.3        8.01       13982  1   40 
                1.1       14.25             6.4        7.65       13982  1   41 
                1.2       14.20             6.5        7.58       13982  1   42 
                1.3       14.33             6.6        7.44       13982  1   43 
                1.4       14.19             6.7        7.40       13982  1   44 
                1.5       14.18             6.8        7.25       13982  1   45 
                1.6       13.97             6.9        7.19       13982  1   46 
                1.7       13.82             7.0        7.15       13982  1   47 
                1.8       13.56             7.2        6.99       13982  1   48 
                1.9       13.40             7.4        6.94       13982  1   49 
                2.0       13.52             7.6        6.97       13982  1   50 
                2.1       13.04             7.8        6.96       13982  1   51 
                2.2       12.77             8.0        7.03       13982  1   52 
                2.3       12.70             8.2        6.89       13982  1   53 
                2.4       12.48             8.4        6.64       13982  1   54 
                2.5       12.32             8.6        6.49       13982  1   55 
                2.6       12.11             8.8        6.43       13982  1   56 
                2.7       11.97             9.0        6.59       13982  1   57 
                2.8       11.81             9.2        6.93       13982  1   58 
                2.9       11.45             9.4        6.73       13982  1   59 
                3.0       11.35             9.6        6.58       13982  1   60 
                3.1       11.20             9.8        6.43       13982  1   61 
                3.2       11.03            10.0        6.37       13982  1   62 
                3.3       11.03            10.3        6.12       13982  1   63 
                3.4       10.79            10.6        5.86       13982  1   64 
                3.5       10.76            10.9        5.77       13982  1   65 
                3.6       10.69            11.2        5.74       13982  1   66 
                3.7       10.54            11.5        5.80       13982  1   67 
                3.8       10.51            11.8        5.75       13982  1   68 
                3.9       10.25            12.1        5.74       13982  1   69 
                4.0       10.09            12.4        5.72       13982  1   70 
                4.1       10.11            12.7        5.72       13982  1   71 
                4.2        9.96            13.0        5.63       13982  1   72 
                4.3        9.91            13.4        5.71       13982  1   73 
                4.4        9.70            13.8        5.67       13982  1   74 
                4.5        9.55            14.2        5.65       13982  1   75 
                4.6        9.48            14.6        5.67       13982  1   76 
                4.7        9.25            15.0        5.60       13982  1   77 
                4.8        9.13            15.4        5.54       13982  1   78 
                4.9        8.99            15.8        5.60       13982  1   79 
                5.0        8.86            16.2        5.44       13982  1   80 
                5.1        8.77            16.6        5.40       13982  1   81 
                5.2        8.73            17.0        5.33       13982  1   82 
                5.3        8.64            17.4        5.27       13982  1   83 
                5.4        8.46            17.6        5.27       13982  1   84 
                5.5        8.34            18.2        5.05       13982  1   85 
                5.6        8.37            18.6        4.97       13982  1   86 
                5.7        8.23                                   13982  1   87 
              ------------------------------------------------    13982  1   88 
            - Correction for contribution of second group         13982  1   89 
              neutrons from 7Li(p,n)7Be* (Effect of less than     13982  1   90 
              1% in neutron spectra).                             13982  1   91 
            - Multiple scattering and neutron attenuation         13982  1   92 
              corrections have not been performed.                13982  1   93 
ERR-ANALYS Uncertainty in outgoing neutron energy due to          13982  1   94 
            calibration is                                        13982  1   95 
                       less than 2% for En < 5MeV,                13982  1   96 
                       4%           for En < 10 MeV,              13982  1   97 
                       8%           for En > 10 MeV               13982  1   98 
           (ERR-T) Sum of counting and experimental uncertainties.13982  1   99 
                   - Both uncertainties were propagated throughout13982  1  100 
                     the analysis when significant.               13982  1  101 
                   - Uncertainty associated with the experiment   13982  1  102 
                     beyond counting statistics and efficiency    13982  1  103 
                     correction are rather negligible.            13982  1  104 
                   - At high energy portions of the spectra,      13982  1  105 
                     statistical uncertainties due to background  13982  1  106 
                     subtraction are the largest contributions    13982  1  107 
                     to overall error.                            13982  1  108 
           (ERR-1) Uncertainty in efficiency determination (7%)   13982  1  109 
HISTORY    (20050310C) DR                                         13982  1  110 
           (20100520R) On. Data received from P.Staples through   13982  1  111 
                           D.G.Madland and P.Talou                13982  1  112 
           (20100524A) On. Re-compiled from two references        13982  1  113 
           (20130323U) On. ERR-ANALYS corrected                   13982  1  114 
           (20181015A) OS. CRITIQUE and REL-REF added             13982  1  115 
ENDBIB             113          0                                 13982  1  116 
COMMON               1          3                                 13982  1  117 
ERR-1                                                             13982  1  118 
PER-CENT                                                          13982  1  119 
 7.                                                               13982  1  120 
ENDCOMMON            3          0                                 13982  1  121 
ENDSUBENT          120          0                                 13982  199999 
SUBENT        13982002   20100621                             13651398200200001 
BIB                  4          4                                 1398200200002 
REACTION   (92-U-235(N,F),,NU/DE,,REL)                            1398200200003 
SAMPLE      93% enriched, 3.84 cm (rad.)x0.5 cm (thick), 62.0 g   1398200200004 
MISC-COL   (MISC) Lower and upper boundary of energy bin          1398200200005 
STATUS     (TABLE) Plotted in Fig.5 of NP/A,591,41,1995           1398200200006 
ENDBIB               4          0                                 1398200200007 
NOCOMMON             0          0                                 1398200200008 
DATA                 6        280                                 1398200200009 
EN         E          DATA       ERR-T      MISC-MIN   MISC-MAX   1398200200010 
MEV        MEV        ARB-UNITS  ARB-UNITS  MEV        MEV        1398200200011 
 0.50       0.596      1.0252E+05 7.69910E+3 0.57105619 0.621056191398200200012 
 0.50       0.646      1.1211E+05 8.33936E+3 0.62105619 0.671056191398200200013 
 0.50       0.696      1.1365E+05 8.41145E+3 0.67105619 0.721056191398200200014 
 0.50       0.746      1.1925E+05 8.79766E+3 0.72105619 0.771056191398200200015 
 0.50       0.796      1.2078E+05 8.89394E+3 0.77105619 0.821056201398200200016 
 0.50       0.846      1.2214E+05 8.98415E+3 0.82105620 0.871056201398200200017 
 0.50       0.896      1.2424E+05 9.12868E+3 0.87105620 0.921056201398200200018 
 0.50       0.946      1.2538E+05 9.20518E+3 0.92105620 0.971056201398200200019 
 0.50       0.996      1.2358E+05 9.07181E+3 0.97105620 1.021056201398200200020 
 0.50       1.046      1.2215E+05 8.96696E+3 1.02105620 1.071056201398200200021 
 0.50       1.096      1.1934E+05 8.76382E+3 1.07105620 1.121056201398200200022 
 0.50       1.146      1.1743E+05 8.62699E+3 1.12105620 1.171056201398200200023 
 0.50       1.196      1.1607E+05 8.52979E+3 1.17105620 1.221056201398200200024 
 0.50       1.246      1.1513E+05 8.46203E+3 1.22105620 1.271056201398200200025 
 0.50       1.296      1.1339E+05 8.33600E+3 1.27105620 1.321056201398200200026 
 0.50       1.346      1.1037E+05 8.11981E+3 1.32105620 1.371056201398200200027 
 0.50       1.396      1.0776E+05 7.93385E+3 1.37105620 1.421056201398200200028 
 0.50       1.446      1.0551E+05 7.77185E+3 1.42105620 1.471056201398200200029 
 0.50       1.496      1.0392E+05 7.65797E+3 1.47105620 1.521056211398200200030 
 0.50       1.546      1.0315E+05 7.60354E+3 1.52105621 1.571056211398200200031 
 0.50       1.596      1.0174E+05 7.50386E+3 1.57105621 1.621056211398200200032 
 0.50       1.646      1.0037E+05 7.40674E+3 1.62105621 1.671056211398200200033 
 0.50       1.696      9.7907E+04 7.23036E+3 1.67105621 1.721056211398200200034 
 0.50       1.746      9.5987E+04 7.09392E+3 1.72105621 1.771056211398200200035 
 0.50       1.796      9.3616E+04 6.92506E+3 1.77105621 1.821056211398200200036 
 0.50       1.846      9.1946E+04 6.80596E+3 1.82105621 1.871056211398200200037 
 0.50       1.896      8.9963E+04 6.66425E+3 1.87105621 1.921056211398200200038 
 0.50       1.946      8.7411E+04 6.47974E+3 1.92105621 1.971056211398200200039 
 0.50       1.996      8.3714E+04 6.21243E+3 1.97105621 2.021056211398200200040 
 0.50       2.046      8.2719E+04 6.14349E+3 2.02105621 2.071056211398200200041 
 0.50       2.096      8.1185E+04 6.03601E+3 2.07105621 2.121056211398200200042 
 0.50       2.146      7.9452E+04 5.91288E+3 2.12105621 2.171056221398200200043 
 0.50       2.196      7.7488E+04 5.77286E+3 2.17105622 2.221056221398200200044 
 0.50       2.246      7.4887E+04 5.58545E+3 2.22105622 2.271056221398200200045 
 0.50       2.296      7.3016E+04 5.45061E+3 2.27105622 2.321056221398200200046 
 0.50       2.346      7.1151E+04 5.31706E+3 2.32105622 2.371056221398200200047 
 0.50       2.396      6.8887E+04 5.15465E+3 2.37105622 2.421056221398200200048 
 0.50       2.446      6.7450E+04 5.05172E+3 2.42105622 2.471056221398200200049 
 0.50       2.496      6.5585E+04 4.91756E+3 2.47105622 2.521056221398200200050 
 0.50       2.546      6.2980E+04 4.73007E+3 2.52105622 2.571056221398200200051 
 0.50       2.596      6.2552E+04 4.70039E+3 2.57105622 2.621056221398200200052 
 0.50       2.647      6.1232E+04 4.60096E+3 2.62105622 2.672509441398200200053 
 0.50       2.699      5.8957E+04 4.43217E+3 2.67250944 2.725518791398200200054 
 0.50       2.753      5.7792E+04 4.34415E+3 2.72551879 2.780147961398200200055 
 0.50       2.808      5.5535E+04 4.17716E+3 2.78014796 2.836463991398200200056 
 0.50       2.866      5.4920E+04 4.13063E+3 2.83646399 2.894537371398200200057 
 0.50       2.924      5.3871E+04 4.05188E+3 2.89453737 2.954442381398200200058 
 0.50       2.985      5.1954E+04 3.90911E+3 2.95444238 3.016257241398200200059 
 0.50       3.048      5.0205E+04 3.77887E+3 3.01625724 3.080064411398200200060 
 0.50       3.113      4.7994E+04 3.61521E+3 3.08006441 3.145950881398200200061 
 0.50       3.180      4.6201E+04 3.48211E+3 3.14595088 3.214008441398200200062 
 0.50       3.249      4.3810E+04 3.30472E+3 3.21400844 3.284334021398200200063 
 0.50       3.321      4.2035E+04 3.17224E+3 3.28433402 3.357030041398200200064 
 0.50       3.395      4.0213E+04 3.03774E+3 3.35703004 3.432204771398200200065 
 0.50       3.471      3.8060E+04 2.87774E+3 3.43220477 3.509972781398200200066 
 0.50       3.550      3.5749E+04 2.70624E+3 3.50997278 3.590455331398200200067 
 0.50       3.632      3.3758E+04 2.55851E+3 3.59045533 3.673780891398200200068 
 0.50       3.717      3.2166E+04 2.44000E+3 3.67378089 3.760085661398200200069 
 0.50       3.805      3.0089E+04 2.28556E+3 3.76008566 3.849514081398200200070 
 0.50       3.896      2.8773E+04 2.18833E+3 3.84951408 3.942219511398200200071 
 0.50       3.990      2.7645E+04 2.10417E+3 3.94221951 4.038364881398200200072 
 0.50       4.088      2.5701E+04 1.95902E+3 4.03836488 4.138123381398200200073 
 0.50       4.190      2.4184E+04 1.84623E+3 4.13812338 4.241679281398200200074 
 0.50       4.295      2.2702E+04 1.73537E+3 4.24167928 4.349228811398200200075 
 0.50       4.405      2.1477E+04 1.64447E+3 4.34922881 4.460981061398200200076 
 0.50       4.519      2.0107E+04 1.54251E+3 4.46098106 4.577159061398200200077 
 0.50       4.637      1.8504E+04 1.42322E+3 4.57715906 4.698000871398200200078 
 0.50       4.761      1.7393E+04 1.34058E+3 4.69800087 4.823760841398200200079 
 0.50       4.889      1.6208E+04 1.25213E+3 4.82376084 4.954710951398200200080 
 0.50       5.023      1.4905E+04 1.15484E+3 4.95471095 5.091142341398200200081 
 0.50       5.162      1.3608E+04 1.05746E+3 5.09114234 5.233366901398200200082 
 0.50       5.307      1.2253E+04 9.55873E+2 5.23336690 5.381719141398200200083 
 0.50       5.459      1.1400E+04 8.92010E+2 5.38171914 5.536558161398200200084 
 0.50       5.617      1.0066E+04 7.91307E+2 5.53655816 5.698269851398200200085 
 0.50       5.782      9.0559E+03 7.15208E+2 5.69826985 5.867269341398200200086 
 0.50       5.955      7.8868E+03 6.26912E+2 5.86726934 6.044003751398200200087 
 0.50       6.136      7.0699E+03 5.64806E+2 6.04400375 6.228955121398200200088 
 0.50       6.325      6.0397E+03 4.85860E+2 6.22895512 6.422643861398200200089 
 0.50       6.523      5.5361E+03 4.47992E+2 6.42264386 6.625632361398200200090 
 0.50       6.731      4.9807E+03 4.05417E+2 6.62563236 6.838529261398200200091 
 0.50       6.949      4.2825E+03 3.51849E+2 6.83852926 7.061994031398200200092 
 0.50       7.178      3.3653E+03 2.81211E+2 7.06199403 7.296742181398200200093 
 0.50       7.419      2.9082E+03 2.45178E+2 7.29674218 7.543551151398200200094 
 0.50       7.672      2.2647E+03 1.94339E+2 7.54355115 7.803266801398200200095 
 0.50       7.938      1.8522E+03 1.61170E+2 7.80326680 8.076810901398200200096 
 0.50       8.219      1.5845E+03 1.39652E+2 8.07681090 8.365189411398200200097 
 0.50       8.515      1.1015E+03 1.01132E+2 8.36518941 8.669501941398200200098 
 0.50       8.828      9.1525E+02 8.56201E+1 8.66950194 8.990952531398200200099 
 0.50       9.158      6.4038E+02 6.19453E+1 8.99095253 9.330861731398200200100 
 0.50       9.508      4.2233E+02 4.34910E+1 9.33086173 9.690680581398200200101 
 0.50       9.878      3.3967E+02 3.62589E+1 9.6906805810.072006411398200200102 
 0.50      10.271      2.9052E+02 3.18704E+110.0720064110.476601031398200200103 
 0.50      10.687      2.3174E+02 2.66297E+110.4766010310.906411621398200200104 
 0.50      11.130      1.4013E+02 1.80441E+110.9064116211.363594741398200200105 
 0.50      11.602      1.0741E+02 1.46429E+111.3635947411.850544181398200200106 
 0.50      12.104      8.5841E+01 1.23372E+111.8505441812.369923121398200200107 
 0.50      12.640      7.1694E+01 1.07215E+112.3699231212.924701641398200200108 
 0.50      13.214      5.8681E+01 9.23134E+012.9247016413.518200491398200200109 
 0.50      13.827      4.7053E+01 7.84867E+013.5182004914.154142311398200200110 
 0.50      14.485      4.0670E+01 6.99531E+014.1541423114.836711941398200200111 
 0.50      15.192      3.6751E+01 6.44160E+014.8367119415.570627601398200200112 
 0.50      15.952      3.3928E+01 5.97513E+015.5706276016.361225291398200200113 
 0.50      16.772      3.1578E+01 5.62418E+016.3612252917.214559381398200200114 
 1.50       1.696      9.2901E+04 6.87020E+3 1.67105621 1.721056211398200200115 
 1.50       1.746      8.9765E+04 6.64607E+3 1.72105621 1.771056211398200200116 
 1.50       1.796      8.8150E+04 6.53147E+3 1.77105621 1.821056211398200200117 
 1.50       1.846      8.7317E+04 6.47254E+3 1.82105621 1.871056211398200200118 
 1.50       1.896      8.5614E+04 6.35086E+3 1.87105621 1.921056211398200200119 
 1.50       1.946      8.3299E+04 6.18327E+3 1.92105621 1.971056211398200200120 
 1.50       1.996      8.0121E+04 5.95329E+3 1.97105621 2.021056211398200200121 
 1.50       2.046      7.9311E+04 5.89757E+3 2.02105621 2.071056211398200200122 
 1.50       2.096      7.7435E+04 5.76533E+3 2.07105621 2.121056211398200200123 
 1.50       2.146      7.5743E+04 5.64494E+3 2.12105621 2.171056221398200200124 
 1.50       2.196      7.4143E+04 5.53112E+3 2.17105622 2.221056221398200200125 
 1.50       2.246      7.1840E+04 5.36510E+3 2.22105622 2.271056221398200200126 
 1.50       2.296      6.9869E+04 5.22293E+3 2.27105622 2.321056221398200200127 
 1.50       2.346      6.8245E+04 5.10676E+3 2.32105622 2.371056221398200200128 
 1.50       2.396      6.6763E+04 5.00081E+3 2.37105622 2.421056221398200200129 
 1.50       2.446      6.5128E+04 4.88345E+3 2.42105622 2.471056221398200200130 
 1.50       2.496      6.3573E+04 4.77171E+3 2.47105622 2.521056221398200200131 
 1.50       2.546      6.2292E+04 4.68016E+3 2.52105622 2.571056221398200200132 
 1.50       2.596      6.0961E+04 4.58490E+3 2.57105622 2.621056221398200200133 
 1.50       2.647      5.9416E+04 4.46920E+3 2.62105622 2.672509441398200200134 
 1.50       2.699      5.8023E+04 4.36439E+3 2.67250944 2.725518791398200200135 
 1.50       2.753      5.5206E+04 4.15643E+3 2.72551879 2.780147961398200200136 
 1.50       2.808      5.3944E+04 4.06164E+3 2.78014796 2.836463991398200200137 
 1.50       2.866      5.3345E+04 4.01626E+3 2.83646399 2.894537371398200200138 
 1.50       2.924      5.1014E+04 3.84435E+3 2.89453737 2.954442381398200200139 
 1.50       2.985      4.8339E+04 3.64640E+3 2.95444238 3.016257241398200200140 
 1.50       3.048      4.6922E+04 3.54026E+3 3.01625724 3.080064411398200200141 
 1.50       3.113      4.4662E+04 3.37294E+3 3.08006441 3.145950881398200200142 
 1.50       3.180      4.3259E+04 3.26822E+3 3.14595088 3.214008441398200200143 
 1.50       3.249      4.1941E+04 3.16873E+3 3.21400844 3.284334021398200200144 
 1.50       3.321      3.9487E+04 2.98689E+3 3.28433402 3.357030041398200200145 
 1.50       3.395      3.7575E+04 2.84571E+3 3.35703004 3.432204771398200200146 
 1.50       3.471      3.5739E+04 2.70866E+3 3.43220477 3.509972781398200200147 
 1.50       3.550      3.4287E+04 2.59971E+3 3.50997278 3.590455331398200200148 
 1.50       3.632      3.2369E+04 2.45724E+3 3.59045533 3.673780891398200200149 
 1.50       3.717      3.0503E+04 2.31872E+3 3.67378089 3.760085661398200200150 
 1.50       3.805      2.8748E+04 2.18768E+3 3.76008566 3.849514081398200200151 
 1.50       3.896      2.7815E+04 2.11834E+3 3.84951408 3.942219511398200200152 
 1.50       3.990      2.6514E+04 2.02149E+3 3.94221951 4.038364881398200200153 
 1.50       4.088      2.5067E+04 1.91271E+3 4.03836488 4.138123381398200200154 
 1.50       4.190      2.3207E+04 1.77466E+3 4.13812338 4.241679281398200200155 
 1.50       4.295      2.1480E+04 1.64584E+3 4.24167928 4.349228811398200200156 
 1.50       4.405      2.0464E+04 1.57022E+3 4.34922881 4.460981061398200200157 
 1.50       4.519      1.9317E+04 1.48456E+3 4.46098106 4.577159061398200200158 
 1.50       4.637      1.7726E+04 1.36609E+3 4.57715906 4.698000871398200200159 
 1.50       4.761      1.6529E+04 1.27702E+3 4.69800087 4.823760841398200200160 
 1.50       4.889      1.5266E+04 1.18272E+3 4.82376084 4.954710951398200200161 
 1.50       5.023      1.3734E+04 1.06839E+3 4.95471095 5.091142341398200200162 
 1.50       5.162      1.2597E+04 9.82744E+2 5.09114234 5.233366901398200200163 
 1.50       5.307      1.1376E+04 8.90927E+2 5.23336690 5.381719141398200200164 
 1.50       5.459      1.0463E+04 8.22489E+2 5.38171914 5.536558161398200200165 
 1.50       5.617      9.1716E+03 7.24775E+2 5.53655816 5.698269851398200200166 
 1.50       5.782      8.6370E+03 6.84001E+2 5.69826985 5.867269341398200200167 
 1.50       5.955      7.5255E+03 5.99903E+2 5.86726934 6.044003751398200200168 
 1.50       6.136      6.7951E+03 5.44214E+2 6.04400375 6.228955121398200200169 
 1.50       6.325      6.0031E+03 4.83114E+2 6.22895512 6.422643861398200200170 
 1.50       6.523      5.1493E+03 4.18792E+2 6.42264386 6.625632361398200200171 
 1.50       6.731      4.6426E+03 3.79810E+2 6.62563236 6.838529261398200200172 
 1.50       6.949      3.9081E+03 3.23346E+2 6.83852926 7.061994031398200200173 
 1.50       7.178      3.4559E+03 2.88153E+2 7.06199403 7.296742181398200200174 
 1.50       7.419      2.7779E+03 2.35134E+2 7.29674218 7.543551151398200200175 
 1.50       7.672      2.1235E+03 1.83346E+2 7.54355115 7.803266801398200200176 
 1.50       7.938      1.7996E+03 1.57049E+2 7.80326680 8.076810901398200200177 
 1.50       8.219      1.4050E+03 1.25466E+2 8.07681090 8.365189411398200200178 
 1.50       8.515      1.1051E+03 1.01428E+2 8.36518941 8.669501941398200200179 
 1.50       8.828      9.6909E+02 8.99828E+1 8.66950194 8.990952531398200200180 
 1.50       9.158      6.1462E+02 5.98168E+1 8.99095253 9.330861731398200200181 
 1.50       9.508      4.1673E+02 4.30148E+1 9.33086173 9.690680581398200200182 
 1.50       9.878      3.1519E+02 3.41368E+1 9.6906805810.072006411398200200183 
 1.50      10.271      2.7916E+02 3.08761E+110.0720064110.476601031398200200184 
 1.50      10.687      2.2812E+02 2.63072E+110.4766010310.906411621398200200185 
 1.50      11.130      1.5262E+02 1.92025E+110.9064116211.363594741398200200186 
 1.50      11.602      1.1967E+02 1.58004E+111.3635947411.850544181398200200187 
 1.50      12.104      9.7951E+01 1.34981E+111.8505441812.369923121398200200188 
 1.50      12.641      7.2164E+01 1.07673E+112.3699231212.924701641398200200189 
 1.50      13.214      5.9998E+01 9.36155E+012.9247016413.518200491398200200190 
 1.50      13.827      4.9377E+01 8.08154E+013.5182004914.154142311398200200191 
 1.50      14.485      4.4488E+01 7.37987E+014.1541423114.836711941398200200192 
 1.50      15.192      3.7419E+01 6.50947E+014.8367119415.570627601398200200193 
 1.50      15.952      3.1969E+01 5.77544E+015.5706276016.361225291398200200194 
 1.50      16.772      2.1386E+01 4.56781E+016.3612252917.214559381398200200195 
 2.50       2.808      4.2389E+04 3.22088E+3 2.78014796 2.836463991398200200196 
 2.50       2.866      4.1047E+04 3.12132E+3 2.83646399 2.894537371398200200197 
 2.50       2.924      4.0046E+04 3.04596E+3 2.89453737 2.954442381398200200198 
 2.50       2.985      3.8572E+04 2.93523E+3 2.95444238 3.016257241398200200199 
 2.50       3.048      3.6547E+04 2.78448E+3 3.01625724 3.080064411398200200200 
 2.50       3.113      3.5477E+04 2.70373E+3 3.08006441 3.145950881398200200201 
 2.50       3.180      3.5218E+04 2.68235E+3 3.14595088 3.214008441398200200202 
 2.50       3.249      3.3856E+04 2.57965E+3 3.21400844 3.284334021398200200203 
 2.50       3.321      3.2785E+04 2.49839E+3 3.28433402 3.357030041398200200204 
 2.50       3.395      3.2020E+04 2.44076E+3 3.35703004 3.432204771398200200205 
 2.50       3.471      2.9355E+04 2.24287E+3 3.43220477 3.509972781398200200206 
 2.50       3.550      2.8094E+04 2.14776E+3 3.50997278 3.590455331398200200207 
 2.50       3.632      2.6281E+04 2.01254E+3 3.59045533 3.673780891398200200208 
 2.50       3.717      2.5264E+04 1.93587E+3 3.67378089 3.760085661398200200209 
 2.50       3.805      2.4261E+04 1.85976E+3 3.76008566 3.849514081398200200210 
 2.50       3.896      2.3019E+04 1.76758E+3 3.84951408 3.942219511398200200211 
 2.50       3.990      2.1732E+04 1.67152E+3 3.94221951 4.038364881398200200212 
 2.50       4.088      1.9910E+04 1.53494E+3 4.03836488 4.138123381398200200213 
 2.50       4.190      1.8352E+04 1.41863E+3 4.13812338 4.241679281398200200214 
 2.50       4.295      1.7559E+04 1.35814E+3 4.24167928 4.349228811398200200215 
 2.50       4.405      1.6494E+04 1.27866E+3 4.34922881 4.460981061398200200216 
 2.50       4.519      1.5709E+04 1.21937E+3 4.46098106 4.577159061398200200217 
 2.50       4.637      1.4874E+04 1.15630E+3 4.57715906 4.698000871398200200218 
 2.50       4.761      1.3856E+04 1.08018E+3 4.69800087 4.823760841398200200219 
 2.50       4.889      1.2748E+04 9.97051E+2 4.82376084 4.954710951398200200220 
 2.50       5.023      1.2155E+04 9.51917E+2 4.95471095 5.091142341398200200221 
 2.50       5.162      1.1278E+04 8.85389E+2 5.09114234 5.233366901398200200222 
 2.50       5.307      1.0313E+04 8.12331E+2 5.23336690 5.381719141398200200223 
 2.50       5.459      9.2760E+03 7.34523E+2 5.38171914 5.536558161398200200224 
 2.50       5.617      8.3195E+03 6.61575E+2 5.53655816 5.698269851398200200225 
 2.50       5.782      7.5792E+03 6.05327E+2 5.69826985 5.867269341398200200226 
 2.50       5.955      6.7506E+03 5.42185E+2 5.86726934 6.044003751398200200227 
 2.50       6.136      6.0611E+03 4.89424E+2 6.04400375 6.228955121398200200228 
 2.50       6.325      5.3591E+03 4.34957E+2 6.22895512 6.422643861398200200229 
 2.50       6.523      4.8327E+03 3.95210E+2 6.42264386 6.625632361398200200230 
 2.50       6.731      4.2216E+03 3.48223E+2 6.62563236 6.838529261398200200231 
 2.50       6.949      3.4151E+03 2.86056E+2 6.83852926 7.061994031398200200232 
 2.50       7.178      2.9210E+03 2.47476E+2 7.06199403 7.296742181398200200233 
 2.50       7.419      2.4581E+03 2.10827E+2 7.29674218 7.543551151398200200234 
 2.50       7.672      1.8201E+03 1.60070E+2 7.54355115 7.803266801398200200235 
 2.50       7.938      1.5200E+03 1.35507E+2 7.80326680 8.076810901398200200236 
 2.50       8.219      1.2010E+03 1.09713E+2 8.07681090 8.365189411398200200237 
 2.50       8.515      1.0114E+03 9.44059E+1 8.36518941 8.669501941398200200238 
 2.50       8.828      8.3843E+02 7.99202E+1 8.66950194 8.990952531398200200239 
 2.50       9.158      5.7688E+02 5.72401E+1 8.99095253 9.330861731398200200240 
 2.50       9.508      4.2342E+02 4.41966E+1 9.33086173 9.690680581398200200241 
 2.50       9.878      3.2788E+02 3.59022E+1 9.6906805810.072006411398200200242 
 2.50      10.271      2.5060E+02 2.90822E+110.0720064110.476601031398200200243 
 2.50      10.687      1.9781E+02 2.43685E+110.4766010310.906411621398200200244 
 2.50      11.130      1.4996E+02 1.97731E+110.9064116211.363594741398200200245 
 2.50      11.602      1.0085E+02 1.48720E+111.3635947411.850544181398200200246 
 2.50      12.104      8.3862E+01 1.29863E+111.8505441812.369923121398200200247 
 2.50      12.641      6.9958E+01 1.13706E+112.3699231212.924701641398200200248 
 2.50      13.214      4.9602E+01 9.16226E+012.9247016413.518200491398200200249 
 2.50      13.827      3.8836E+01 7.83348E+013.5182004914.154142311398200200250 
 2.50      14.485      3.4400E+01 7.12790E+014.1541423114.836711941398200200251 
 3.50       4.088      2.9748E+04 2.25466E+3 4.03836488 4.138123381398200200252 
 3.50       4.190      2.7613E+04 2.09699E+3 4.13812338 4.241679281398200200253 
 3.50       4.295      2.6212E+04 1.99221E+3 4.24167928 4.349228811398200200254 
 3.50       4.405      2.5162E+04 1.91431E+3 4.34922881 4.460981061398200200255 
 3.50       4.519      2.3623E+04 1.80021E+3 4.46098106 4.577159061398200200256 
 3.50       4.637      2.2306E+04 1.70213E+3 4.57715906 4.698000871398200200257 
 3.50       4.761      2.0822E+04 1.59244E+3 4.69800087 4.823760841398200200258 
 3.50       4.889      1.9597E+04 1.50123E+3 4.82376084 4.954710951398200200259 
 3.50       5.023      1.7794E+04 1.36762E+3 4.95471095 5.091142341398200200260 
 3.50       5.162      1.6197E+04 1.24849E+3 5.09114234 5.233366901398200200261 
 3.50       5.307      1.5098E+04 1.16606E+3 5.23336690 5.381719141398200200262 
 3.50       5.459      1.4224E+04 1.10085E+3 5.38171914 5.536558161398200200263 
 3.50       5.617      1.2296E+04 9.56741E+2 5.53655816 5.698269851398200200264 
 3.50       5.782      1.1456E+04 8.93548E+2 5.69826985 5.867269341398200200265 
 3.50       5.955      1.0268E+04 8.04330E+2 5.86726934 6.044003751398200200266 
 3.50       6.136      9.4388E+03 7.41693E+2 6.04400375 6.228955121398200200267 
 3.50       6.325      7.9290E+03 6.27510E+2 6.22895512 6.422643861398200200268 
 3.50       6.523      7.3647E+03 5.85475E+2 6.42264386 6.625632361398200200269 
 3.50       6.731      6.2900E+03 5.04330E+2 6.62563236 6.838529261398200200270 
 3.50       6.949      5.3947E+03 4.36321E+2 6.83852926 7.061994031398200200271 
 3.50       7.178      4.4779E+03 3.66329E+2 7.06199403 7.296742181398200200272 
 3.50       7.419      3.9625E+03 3.26168E+2 7.29674218 7.543551151398200200273 
 3.50       7.672      3.2405E+03 2.69872E+2 7.54355115 7.803266801398200200274 
 3.50       7.938      2.5992E+03 2.19497E+2 7.80326680 8.076810901398200200275 
 3.50       8.219      2.0839E+03 1.79089E+2 8.07681090 8.365189411398200200276 
 3.50       8.515      1.6863E+03 1.47973E+2 8.36518941 8.669501941398200200277 
 3.50       8.828      1.4363E+03 1.27721E+2 8.66950194 8.990952531398200200278 
 3.50       9.159      1.0019E+03 9.17304E+1 8.99095253 9.330861731398200200279 
 3.50       9.508      7.2312E+02 6.89814E+1 9.33086173 9.690680581398200200280 
 3.50       9.878      5.1004E+02 5.12682E+1 9.6906805810.072006411398200200281 
 3.50      10.271      4.6421E+02 4.72970E+110.0720064110.476601031398200200282 
 3.50      10.688      3.7609E+02 3.98097E+110.4766010310.906411621398200200283 
 3.50      11.131      2.6148E+02 2.96386E+110.9064116211.363594741398200200284 
 3.50      11.602      1.7933E+02 2.19821E+111.3635947411.850544181398200200285 
 3.50      12.105      1.4626E+02 1.86976E+111.8505441812.369923121398200200286 
 3.50      12.641      1.2511E+02 1.64570E+112.3699231212.924701641398200200287 
 3.50      13.214      1.1465E+02 1.52154E+112.9247016413.518200491398200200288 
 3.50      13.828      8.0169E+01 1.17460E+113.5182004914.154142311398200200289 
 3.50      14.486      6.8283E+01 1.03512E+114.1541423114.836711941398200200290 
 3.50      15.193      5.7964E+01 9.17022E+014.8367119415.570627601398200200291 
ENDDATA            282          0                                 1398200200292 
ENDSUBENT          291          0                                 1398200299999 
SUBENT        13982003   20100621                             13651398200300001 
BIB                  4          4                                 1398200300002 
REACTION   (94-PU-239(N,F),,NU/DE,,REL)                           1398200300003 
SAMPLE      98% enriched, 3.46 cm (rad.)x0.2 cm (thick), 28.7 g   1398200300004 
MISC-COL   (MISC) Lower and upper boundary of energy bin          1398200300005 
STATUS     (TABLE) Plotted in Fig.7 of NP/A,591,41,1995           1398200300006 
ENDBIB               4          0                                 1398200300007 
NOCOMMON             0          0                                 1398200300008 
DATA                 6        275                                 1398200300009 
EN         E          DATA       ERR-T      MISC-MIN   MISC-MAX   1398200300010 
MEV        MEV        ARB-UNITS  ARB-UNITS  MEV        MEV        1398200300011 
 0.50       0.596      7.2442E+04 5.51235E+3 0.57105619 0.621056191398200300012 
 0.50       0.646      7.5808E+04 5.71226E+3 0.62105619 0.671056191398200300013 
 0.50       0.696      7.7300E+04 5.78795E+3 0.67105619 0.721056191398200300014 
 0.50       0.746      8.2989E+04 6.18560E+3 0.72105619 0.771056191398200300015 
 0.50       0.796      8.8467E+04 6.56929E+3 0.77105619 0.821056201398200300016 
 0.50       0.846      8.9019E+04 6.60279E+3 0.82105620 0.871056201398200300017 
 0.50       0.896      8.9994E+04 6.66738E+3 0.87105620 0.921056201398200300018 
 0.50       0.946      9.1973E+04 6.80563E+3 0.92105620 0.971056201398200300019 
 0.50       0.996      8.9483E+04 6.62239E+3 0.97105620 1.021056201398200300020 
 0.50       1.046      8.8860E+04 6.57586E+3 1.02105620 1.071056201398200300021 
 0.50       1.096      8.8310E+04 6.53494E+3 1.07105620 1.121056201398200300022 
 0.50       1.146      8.7899E+04 6.50543E+3 1.12105620 1.171056201398200300023 
 0.50       1.196      8.6637E+04 6.41478E+3 1.17105620 1.221056201398200300024 
 0.50       1.246      8.5561E+04 6.33652E+3 1.22105620 1.271056201398200300025 
 0.50       1.296      8.5143E+04 6.30558E+3 1.27105620 1.321056201398200300026 
 0.50       1.346      8.3867E+04 6.21439E+3 1.32105620 1.371056201398200300027 
 0.50       1.396      8.1676E+04 6.05732E+3 1.37105620 1.421056201398200300028 
 0.50       1.446      8.0547E+04 5.97600E+3 1.42105620 1.471056201398200300029 
 0.50       1.496      7.9346E+04 5.88945E+3 1.47105620 1.521056211398200300030 
 0.50       1.546      7.9225E+04 5.88181E+3 1.52105621 1.571056211398200300031 
 0.50       1.596      7.8615E+04 5.83905E+3 1.57105621 1.621056211398200300032 
 0.50       1.646      7.8559E+04 5.83595E+3 1.62105621 1.671056211398200300033 
 0.50       1.696      7.7057E+04 5.72846E+3 1.67105621 1.721056211398200300034 
 0.50       1.746      7.4995E+04 5.58113E+3 1.72105621 1.771056211398200300035 
 0.50       1.796      7.3884E+04 5.50244E+3 1.77105621 1.821056211398200300036 
 0.50       1.846      7.2364E+04 5.39361E+3 1.82105621 1.871056211398200300037 
 0.50       1.896      7.0935E+04 5.29133E+3 1.87105621 1.921056211398200300038 
 0.50       1.946      6.8539E+04 5.11748E+3 1.92105621 1.971056211398200300039 
 0.50       1.996      6.5430E+04 4.89183E+3 1.97105621 2.021056211398200300040 
 0.50       2.046      6.4801E+04 4.84878E+3 2.02105621 2.071056211398200300041 
 0.50       2.096      6.3787E+04 4.77816E+3 2.07105621 2.121056211398200300042 
 0.50       2.146      6.2663E+04 4.69841E+3 2.12105621 2.171056221398200300043 
 0.50       2.196      6.1351E+04 4.60494E+3 2.17105622 2.221056221398200300044 
 0.50       2.246      5.9426E+04 4.46578E+3 2.22105622 2.271056221398200300045 
 0.50       2.296      5.7450E+04 4.32273E+3 2.27105622 2.321056221398200300046 
 0.50       2.346      5.6116E+04 4.22705E+3 2.32105622 2.371056221398200300047 
 0.50       2.396      5.4909E+04 4.14062E+3 2.37105622 2.421056221398200300048 
 0.50       2.446      5.3493E+04 4.03865E+3 2.42105622 2.471056221398200300049 
 0.50       2.496      5.2192E+04 3.94495E+3 2.47105622 2.521056221398200300050 
 0.50       2.546      5.0976E+04 3.85763E+3 2.52105622 2.571056221398200300051 
 0.50       2.596      4.9630E+04 3.76076E+3 2.57105622 2.621056221398200300052 
 0.50       2.647      4.8268E+04 3.65828E+3 2.62105622 2.672509441398200300053 
 0.50       2.699      4.6504E+04 3.52642E+3 2.67250944 2.725518791398200300054 
 0.50       2.753      4.6337E+04 3.51117E+3 2.72551879 2.780147961398200300055 
 0.50       2.808      4.5181E+04 3.42407E+3 2.78014796 2.836463991398200300056 
 0.50       2.866      4.4361E+04 3.36258E+3 2.83646399 2.894537371398200300057 
 0.50       2.924      4.3408E+04 3.29080E+3 2.89453737 2.954442381398200300058 
 0.50       2.985      4.2102E+04 3.19236E+3 2.95444238 3.016257241398200300059 
 0.50       3.048      4.0399E+04 3.06531E+3 3.01625724 3.080064411398200300060 
 0.50       3.113      3.8811E+04 2.94676E+3 3.08006441 3.145950881398200300061 
 0.50       3.180      3.7799E+04 2.87040E+3 3.14595088 3.214008441398200300062 
 0.50       3.249      3.5570E+04 2.70441E+3 3.21400844 3.284334021398200300063 
 0.50       3.321      3.3659E+04 2.56187E+3 3.28433402 3.357030041398200300064 
 0.50       3.395      3.1769E+04 2.42199E+3 3.35703004 3.432204771398200300065 
 0.50       3.471      3.0225E+04 2.30609E+3 3.43220477 3.509972781398200300066 
 0.50       3.550      2.8248E+04 2.15866E+3 3.50997278 3.590455331398200300067 
 0.50       3.632      2.6923E+04 2.05919E+3 3.59045533 3.673780891398200300068 
 0.50       3.717      2.6064E+04 1.99412E+3 3.67378089 3.760085661398200300069 
 0.50       3.805      2.4393E+04 1.86908E+3 3.76008566 3.849514081398200300070 
 0.50       3.896      2.3275E+04 1.78604E+3 3.84951408 3.942219511398200300071 
 0.50       3.990      2.2574E+04 1.73295E+3 3.94221951 4.038364881398200300072 
 0.50       4.088      2.0642E+04 1.58835E+3 4.03836488 4.138123381398200300073 
 0.50       4.190      1.9786E+04 1.52374E+3 4.13812338 4.241679281398200300074 
 0.50       4.295      1.8769E+04 1.44684E+3 4.24167928 4.349228811398200300075 
 0.50       4.405      1.7405E+04 1.34545E+3 4.34922881 4.460981061398200300076 
 0.50       4.519      1.6203E+04 1.25546E+3 4.46098106 4.577159061398200300077 
 0.50       4.637      1.5252E+04 1.18390E+3 4.57715906 4.698000871398200300078 
 0.50       4.761      1.4053E+04 1.09441E+3 4.69800087 4.823760841398200300079 
 0.50       4.889      1.3291E+04 1.03690E+3 4.82376084 4.954710951398200300080 
 0.50       5.023      1.1978E+04 9.38482E+2 4.95471095 5.091142341398200300081 
 0.50       5.162      1.0582E+04 8.33329E+2 5.09114234 5.233366901398200300082 
 0.50       5.307      9.8432E+03 7.77068E+2 5.23336690 5.381719141398200300083 
 0.50       5.459      8.9030E+03 7.06353E+2 5.38171914 5.536558161398200300084 
 0.50       5.617      8.0693E+03 6.42527E+2 5.53655816 5.698269851398200300085 
 0.50       5.782      7.0863E+03 5.68038E+2 5.69826985 5.867269341398200300086 
 0.50       5.955      6.6942E+03 5.37598E+2 5.86726934 6.044003751398200300087 
 0.50       6.136      5.8102E+03 4.70155E+2 6.04400375 6.228955121398200300088 
 0.50       6.325      4.9017E+03 4.00021E+2 6.22895512 6.422643861398200300089 
 0.50       6.523      4.3469E+03 3.57945E+2 6.42264386 6.625632361398200300090 
 0.50       6.731      3.9198E+03 3.24831E+2 6.62563236 6.838529261398200300091 
 0.50       6.949      3.2361E+03 2.71898E+2 6.83852926 7.061994031398200300092 
 0.50       7.178      2.7330E+03 2.32520E+2 7.06199403 7.296742181398200300093 
 0.50       7.419      2.2171E+03 1.91639E+2 7.29674218 7.543551151398200300094 
 0.50       7.672      1.5276E+03 1.36512E+2 7.54355115 7.803266801398200300095 
 0.50       7.938      1.3814E+03 1.24045E+2 7.80326680 8.076810901398200300096 
 0.50       8.219      1.1859E+03 1.08004E+2 8.07681090 8.365189411398200300097 
 0.50       8.515      8.2952E+02 7.90686E+1 8.36518941 8.669501941398200300098 
 0.50       8.828      7.0694E+02 6.85668E+1 8.66950194 8.990952531398200300099 
 0.50       9.158      4.6452E+02 4.72686E+1 8.99095253 9.330861731398200300100 
 0.50       9.508      3.4970E+02 3.72713E+1 9.33086173 9.690680581398200300101 
 0.50       9.878      2.8592E+02 3.15814E+1 9.6906805810.072006411398200300102 
 0.50      10.271      2.0186E+02 2.39978E+110.0720064110.476601031398200300103 
 0.50      10.687      1.6504E+02 2.05932E+110.4766010310.906411621398200300104 
 0.50      11.130      1.0565E+02 1.47915E+110.9064116211.363594741398200300105 
 0.50      11.602      8.6230E+01 1.26112E+111.3635947411.850544181398200300106 
 0.50      12.104      7.2355E+01 1.10251E+111.8505441812.369923121398200300107 
 0.50      12.640      6.7600E+01 1.03206E+112.3699231212.924701641398200300108 
 0.50      13.214      4.8622E+01 8.22679E+012.9247016413.518200491398200300109 
 0.50      13.827      4.9441E+01 8.08789E+013.5182004914.154142311398200300110 
 0.50      14.485      3.1840E+01 6.09216E+014.1541423114.836711941398200300111 
 0.50      15.192      2.6992E+01 5.43665E+014.8367119415.570627601398200300112 
 0.50      15.952      2.5151E+01 5.07080E+015.5706276016.361225291398200300113 
 1.50       1.696      4.8996E+04 3.69671E+3 1.67105621 1.721056211398200300114 
 1.50       1.746      4.6986E+04 3.55165E+3 1.72105621 1.771056211398200300115 
 1.50       1.796      4.5860E+04 3.47092E+3 1.77105621 1.821056211398200300116 
 1.50       1.846      4.4449E+04 3.36889E+3 1.82105621 1.871056211398200300117 
 1.50       1.896      4.3735E+04 3.31756E+3 1.87105621 1.921056211398200300118 
 1.50       1.946      4.2830E+04 3.25112E+3 1.92105621 1.971056211398200300119 
 1.50       1.996      4.1296E+04 3.13861E+3 1.97105621 2.021056211398200300120 
 1.50       2.046      4.1107E+04 3.12680E+3 2.02105621 2.071056211398200300121 
 1.50       2.096      4.0883E+04 3.11271E+3 2.07105621 2.121056211398200300122 
 1.50       2.146      4.0213E+04 3.06509E+3 2.12105621 2.171056221398200300123 
 1.50       2.196      3.9409E+04 3.00757E+3 2.17105622 2.221056221398200300124 
 1.50       2.246      3.8208E+04 2.92012E+3 2.22105622 2.271056221398200300125 
 1.50       2.296      3.7207E+04 2.84715E+3 2.27105622 2.321056221398200300126 
 1.50       2.346      3.6441E+04 2.79203E+3 2.32105622 2.371056221398200300127 
 1.50       2.396      3.5652E+04 2.73517E+3 2.37105622 2.421056221398200300128 
 1.50       2.446      3.4713E+04 2.66705E+3 2.42105622 2.471056221398200300129 
 1.50       2.496      3.3846E+04 2.60417E+3 2.47105622 2.521056221398200300130 
 1.50       2.546      3.3291E+04 2.56436E+3 2.52105622 2.571056221398200300131 
 1.50       2.596      3.2848E+04 2.53280E+3 2.57105622 2.621056221398200300132 
 1.50       2.647      3.2453E+04 2.50111E+3 2.62105622 2.672509441398200300133 
 1.50       2.699      3.1423E+04 2.42270E+3 2.67250944 2.725518791398200300134 
 1.50       2.753      3.0404E+04 2.34521E+3 2.72551879 2.780147961398200300135 
 1.50       2.808      2.9570E+04 2.28156E+3 2.78014796 2.836463991398200300136 
 1.50       2.866      2.9062E+04 2.24280E+3 2.83646399 2.894537371398200300137 
 1.50       2.924      2.8571E+04 2.20477E+3 2.89453737 2.954442381398200300138 
 1.50       2.985      2.6934E+04 2.08168E+3 2.95444238 3.016257241398200300139 
 1.50       3.048      2.6070E+04 2.01574E+3 3.01625724 3.080064411398200300140 
 1.50       3.113      2.4389E+04 1.88973E+3 3.08006441 3.145950881398200300141 
 1.50       3.180      2.3813E+04 1.84524E+3 3.14595088 3.214008441398200300142 
 1.50       3.249      2.3089E+04 1.78924E+3 3.21400844 3.284334021398200300143 
 1.50       3.321      2.1964E+04 1.70380E+3 3.28433402 3.357030041398200300144 
 1.50       3.395      2.0517E+04 1.59561E+3 3.35703004 3.432204771398200300145 
 1.50       3.471      1.9477E+04 1.51634E+3 3.43220477 3.509972781398200300146 
 1.50       3.550      1.8460E+04 1.43890E+3 3.50997278 3.590455331398200300147 
 1.50       3.632      1.7854E+04 1.39214E+3 3.59045533 3.673780891398200300148 
 1.50       3.717      1.6788E+04 1.31150E+3 3.67378089 3.760085661398200300149 
 1.50       3.805      1.6020E+04 1.25245E+3 3.76008566 3.849514081398200300150 
 1.50       3.896      1.5728E+04 1.22998E+3 3.84951408 3.942219511398200300151 
 1.50       3.990      1.5388E+04 1.20343E+3 3.94221951 4.038364881398200300152 
 1.50       4.088      1.4421E+04 1.12947E+3 4.03836488 4.138123381398200300153 
 1.50       4.190      1.3105E+04 1.03042E+3 4.13812338 4.241679281398200300154 
 1.50       4.295      1.2484E+04 9.82509E+2 4.24167928 4.349228811398200300155 
 1.50       4.405      1.1984E+04 9.44474E+2 4.34922881 4.460981061398200300156 
 1.50       4.519      1.1204E+04 8.85261E+2 4.46098106 4.577159061398200300157 
 1.50       4.637      1.0615E+04 8.40121E+2 4.57715906 4.698000871398200300158 
 1.50       4.761      9.7830E+03 7.77284E+2 4.69800087 4.823760841398200300159 
 1.50       4.889      8.7155E+03 6.96467E+2 4.82376084 4.954710951398200300160 
 1.50       5.023      8.3647E+03 6.69224E+2 4.95471095 5.091142341398200300161 
 1.50       5.162      7.1869E+03 5.79520E+2 5.09114234 5.233366901398200300162 
 1.50       5.307      6.6631E+03 5.38994E+2 5.23336690 5.381719141398200300163 
 1.50       5.459      6.4509E+03 5.22449E+2 5.38171914 5.536558161398200300164 
 1.50       5.617      5.4634E+03 4.46488E+2 5.53655816 5.698269851398200300165 
 1.50       5.782      4.9538E+03 4.07095E+2 5.69826985 5.867269341398200300166 
 1.50       5.955      4.2245E+03 3.50694E+2 5.86726934 6.044003751398200300167 
 1.50       6.136      3.8885E+03 3.24248E+2 6.04400375 6.228955121398200300168 
 1.50       6.325      3.4784E+03 2.91550E+2 6.22895512 6.422643861398200300169 
 1.50       6.523      3.4522E+03 2.89572E+2 6.42264386 6.625632361398200300170 
 1.50       6.731      3.0105E+03 2.55051E+2 6.62563236 6.838529261398200300171 
 1.50       6.949      2.5632E+03 2.19901E+2 6.83852926 7.061994031398200300172 
 1.50       7.178      2.3854E+03 2.05542E+2 7.06199403 7.296742181398200300173 
 1.50       7.419      1.7688E+03 1.56474E+2 7.29674218 7.543551151398200300174 
 1.50       7.672      1.6106E+03 1.43084E+2 7.54355115 7.803266801398200300175 
 1.50       7.938      1.2253E+03 1.11583E+2 7.80326680 8.076810901398200300176 
 1.50       8.219      9.2070E+02 8.65959E+1 8.07681090 8.365189411398200300177 
 1.50       8.515      7.9476E+02 7.62157E+1 8.36518941 8.669501941398200300178 
 1.50       8.828      6.6101E+02 6.47620E+1 8.66950194 8.990952531398200300179 
 1.50       9.158      4.2505E+02 4.39204E+1 8.99095253 9.330861731398200300180 
 1.50       9.508      3.0889E+02 3.37290E+1 9.33086173 9.690680581398200300181 
 1.50       9.878      2.5051E+02 2.84583E+1 9.6906805810.072006411398200300182 
 1.50      10.271      1.9389E+02 2.32761E+110.0720064110.476601031398200300183 
 1.50      10.687      1.3679E+02 1.79697E+110.4766010310.906411621398200300184 
 1.50      11.130      9.4009E+01 1.36704E+110.9064116211.363594741398200300185 
 1.50      11.602      7.1377E+01 1.11573E+111.3635947411.850544181398200300186 
 1.50      12.104      4.8305E+01 8.62118E+011.8505441812.369923121398200300187 
 1.50      12.640      4.3172E+01 7.87336E+012.3699231212.924701641398200300188 
 1.50      13.214      3.0890E+01 6.40464E+012.9247016413.518200491398200300189 
 1.50      13.827      2.5243E+01 5.60075E+013.5182004914.154142311398200300190 
 1.50      14.485      2.1209E+01 4.97401E+014.1541423114.836711941398200300191 
 1.50      15.192      1.8343E+01 4.51933E+014.8367119415.570627601398200300192 
 2.50       2.808      3.1193E+04 2.40143E+3 2.78014796 2.836463991398200300193 
 2.50       2.866      3.1282E+04 2.40646E+3 2.83646399 2.894537371398200300194 
 2.50       2.924      3.0648E+04 2.35799E+3 2.89453737 2.954442381398200300195 
 2.50       2.985      2.9799E+04 2.29288E+3 2.95444238 3.016257241398200300196 
 2.50       3.048      2.9350E+04 2.25738E+3 3.01625724 3.080064411398200300197 
 2.50       3.113      2.8169E+04 2.16838E+3 3.08006441 3.145950881398200300198 
 2.50       3.180      2.6700E+04 2.05825E+3 3.14595088 3.214008441398200300199 
 2.50       3.249      2.5582E+04 1.97328E+3 3.21400844 3.284334021398200300200 
 2.50       3.321      2.5055E+04 1.93194E+3 3.28433402 3.357030041398200300201 
 2.50       3.395      2.3909E+04 1.84613E+3 3.35703004 3.432204771398200300202 
 2.50       3.471      2.2932E+04 1.77161E+3 3.43220477 3.509972781398200300203 
 2.50       3.550      2.2039E+04 1.70334E+3 3.50997278 3.590455331398200300204 
 2.50       3.632      2.0959E+04 1.62169E+3 3.59045533 3.673780891398200300205 
 2.50       3.717      2.0063E+04 1.55381E+3 3.67378089 3.760085661398200300206 
 2.50       3.805      1.8990E+04 1.47229E+3 3.76008566 3.849514081398200300207 
 2.50       3.896      1.8024E+04 1.40014E+3 3.84951408 3.942219511398200300208 
 2.50       3.990      1.7040E+04 1.32602E+3 3.94221951 4.038364881398200300209 
 2.50       4.088      1.6107E+04 1.25465E+3 4.03836488 4.138123381398200300210 
 2.50       4.190      1.4667E+04 1.14661E+3 4.13812338 4.241679281398200300211 
 2.50       4.295      1.3689E+04 1.07229E+3 4.24167928 4.349228811398200300212 
 2.50       4.405      1.3224E+04 1.03694E+3 4.34922881 4.460981061398200300213 
 2.50       4.519      1.2299E+04 9.67062E+2 4.46098106 4.577159061398200300214 
 2.50       4.637      1.1841E+04 9.31745E+2 4.57715906 4.698000871398200300215 
 2.50       4.761      1.1169E+04 8.80987E+2 4.69800087 4.823760841398200300216 
 2.50       4.889      9.8874E+03 7.84463E+2 4.82376084 4.954710951398200300217 
 2.50       5.023      9.4833E+03 7.53277E+2 4.95471095 5.091142341398200300218 
 2.50       5.162      8.8142E+03 7.01938E+2 5.09114234 5.233366901398200300219 
 2.50       5.307      8.3531E+03 6.66259E+2 5.23336690 5.381719141398200300220 
 2.50       5.459      7.7896E+03 6.23467E+2 5.38171914 5.536558161398200300221 
 2.50       5.617      7.1534E+03 5.74287E+2 5.53655816 5.698269851398200300222 
 2.50       5.782      6.4374E+03 5.19652E+2 5.69826985 5.867269341398200300223 
 2.50       5.955      5.8109E+03 4.71489E+2 5.86726934 6.044003751398200300224 
 2.50       6.136      5.2634E+03 4.29249E+2 6.04400375 6.228955121398200300225 
 2.50       6.325      4.5312E+03 3.72310E+2 6.22895512 6.422643861398200300226 
 2.50       6.523      4.0025E+03 3.32114E+2 6.42264386 6.625632361398200300227 
 2.50       6.731      3.4328E+03 2.87983E+2 6.62563236 6.838529261398200300228 
 2.50       6.949      2.8228E+03 2.40486E+2 6.83852926 7.061994031398200300229 
 2.50       7.178      2.6462E+03 2.26254E+2 7.06199403 7.296742181398200300230 
 2.50       7.419      2.1587E+03 1.87547E+2 7.29674218 7.543551151398200300231 
 2.50       7.672      1.6907E+03 1.49903E+2 7.54355115 7.803266801398200300232 
 2.50       7.938      1.4725E+03 1.31756E+2 7.80326680 8.076810901398200300233 
 2.50       8.219      1.2727E+03 1.15431E+2 8.07681090 8.365189411398200300234 
 2.50       8.515      9.4017E+02 8.86532E+1 8.36518941 8.669501941398200300235 
 2.50       8.828      7.6466E+02 7.39017E+1 8.66950194 8.990952531398200300236 
 2.50       9.158      5.2669E+02 5.30763E+1 8.99095253 9.330861731398200300237 
 2.50       9.508      3.5570E+02 3.84498E+1 9.33086173 9.690680581398200300238 
 2.50       9.878      3.1232E+02 3.45652E+1 9.6906805810.072006411398200300239 
 2.50      10.271      2.7514E+02 3.12199E+110.0720064110.476601031398200300240 
 2.50      10.687      2.4168E+02 2.82404E+110.4766010310.906411621398200300241 
 2.50      11.130      1.3854E+02 1.87366E+110.9064116211.363594741398200300242 
 2.50      11.602      9.3394E+01 1.41786E+111.3635947411.850544181398200300243 
 2.50      12.104      8.4533E+01 1.30490E+111.8505441812.369923121398200300244 
 2.50      12.641      4.8529E+01 9.32612E+012.3699231212.924701641398200300245 
 2.50      13.214      3.8910E+01 8.12748E+012.9247016413.518200491398200300246 
 2.50      13.827      2.8017E+01 6.77390E+013.5182004914.154142311398200300247 
 2.50      14.485      2.4313E+01 6.13680E+014.1541423114.836711941398200300248 
 3.50       4.088      1.4643E+04 1.14634E+3 4.03836488 4.138123381398200300249 
 3.50       4.190      1.4079E+04 1.10308E+3 4.13812338 4.241679281398200300250 
 3.50       4.295      1.3066E+04 1.02610E+3 4.24167928 4.349228811398200300251 
 3.50       4.405      1.2917E+04 1.01414E+3 4.34922881 4.460981061398200300252 
 3.50       4.519      1.2094E+04 9.51847E+2 4.46098106 4.577159061398200300253 
 3.50       4.637      1.1484E+04 9.05238E+2 4.57715906 4.698000871398200300254 
 3.50       4.761      1.0808E+04 8.54107E+2 4.69800087 4.823760841398200300255 
 3.50       4.889      9.9264E+03 7.87375E+2 4.82376084 4.954710951398200300256 
 3.50       5.023      9.3283E+03 7.41704E+2 4.95471095 5.091142341398200300257 
 3.50       5.162      8.4966E+03 6.78192E+2 5.09114234 5.233366901398200300258 
 3.50       5.307      7.9133E+03 6.33336E+2 5.23336690 5.381719141398200300259 
 3.50       5.459      7.2969E+03 5.86519E+2 5.38171914 5.536558161398200300260 
 3.50       5.617      6.9267E+03 5.57269E+2 5.53655816 5.698269851398200300261 
 3.50       5.782      6.2188E+03 5.03192E+2 5.69826985 5.867269341398200300262 
 3.50       5.955      5.7680E+03 4.68250E+2 5.86726934 6.044003751398200300263 
 3.50       6.136      5.3216E+03 4.33650E+2 6.04400375 6.228955121398200300264 
 3.50       6.325      4.5157E+03 3.71132E+2 6.22895512 6.422643861398200300265 
 3.50       6.523      4.5906E+03 3.76857E+2 6.42264386 6.625632361398200300266 
 3.50       6.731      3.6826E+03 3.07115E+2 6.62563236 6.838529261398200300267 
 3.50       6.949      3.2228E+03 2.71308E+2 6.83852926 7.061994031398200300268 
 3.50       7.178      2.7210E+03 2.32041E+2 7.06199403 7.296742181398200300269 
 3.50       7.419      2.4073E+03 2.06889E+2 7.29674218 7.543551151398200300270 
 3.50       7.672      1.9455E+03 1.69897E+2 7.54355115 7.803266801398200300271 
 3.50       7.939      1.5784E+03 1.40115E+2 7.80326680 8.076810901398200300272 
 3.50       8.219      1.4601E+03 1.30288E+2 8.07681090 8.365189411398200300273 
 3.50       8.515      9.4821E+02 8.93041E+1 8.36518941 8.669501941398200300274 
 3.50       8.828      7.5500E+02 7.31109E+1 8.66950194 8.990952531398200300275 
 3.50       9.159      5.5584E+02 5.54969E+1 8.99095253 9.330861731398200300276 
 3.50       9.508      3.8831E+02 4.12267E+1 9.33086173 9.690680581398200300277 
 3.50       9.878      3.2010E+02 3.52347E+1 9.6906805810.072006411398200300278 
 3.50      10.271      2.8078E+02 3.17095E+110.0720064110.476601031398200300279 
 3.50      10.688      2.3810E+02 2.79261E+110.4766010310.906411621398200300280 
 3.50      11.131      1.3892E+02 1.87713E+110.9064116211.363594741398200300281 
 3.50      11.602      1.1293E+02 1.59870E+111.3635947411.850544181398200300282 
 3.50      12.105      8.2521E+01 1.28607E+111.8505441812.369923121398200300283 
 3.50      12.641      6.8382E+01 1.12218E+112.3699231212.924701641398200300284 
 3.50      13.214      6.0591E+01 1.02113E+112.9247016413.518200491398200300285 
 3.50      13.828      4.4661E+01 8.39690E+013.5182004914.154142311398200300286 
ENDDATA            277          0                                 1398200300287 
ENDSUBENT          286          0                                 1398200399999 
ENDENTRY             3          0                                 1398299999999 
