ENTRY            14149   20130408                             13901414900000001 
SUBENT        14149001   20130408                             13901414900100001 
BIB                 13         83                                 1414900100002 
TITLE      New Precision Measurements of the 235U(n,gamma) Cross  1414900100003 
           Section                                                1414900100004 
AUTHOR     (M.Jandel,T.A.Bredeweg,E.M.Bond,M.B.Chadwick,A.Couture,1414900100005 
           J.M.O'Donnell,M.Fowler,R.C.Haight,T.Kawano,R.Reifarth, 1414900100006 
           R.S.Rundberg,J.L.Ullmann,D.J.Vieira,J.M.Wouters,       1414900100007 
           J.B.Wilhelmy,C.Y.Wu,J.A.Becker)                        1414900100008 
COMMENT    Title and authors of NIM/B reference:                  1414900100009 
           Simultaneous measurement of (n,gamma) and (n,fission)  1414900100010 
           cross sections with the DANCE 4pi BaF2 array           1414900100011 
           T.A.Bredeweg,M.M.Fowler,J.A.Becker,E.M.Bond,           1414900100012 
           M.B.Chadwick, R.R.C.Clement,E.-I.Esch,T.Ethvignot,     1414900100013 
           T.Granier,M.Jandel,R.A.Macri,J.M.O'Donnell,R.Reifarth, 1414900100014 
           R.S.Rundberg,J.L.Ullmann,D.J.Vieira,J.B.Wilhelmy,      1414900100015 
           J.M.Wouters,C.Y.Wu                                     1414900100016 
INSTITUTE  (1USALAS,1USALRL)                                      1414900100017 
REFERENCE  (J,PRL,109,202506,2012)   Final reference              1414900100018 
           (J,NIM/B,261,986,2007)                                 1414900100019 
           (C,2007NICE,1,607,2008) Preliminary data               1414900100020 
FACILITY   (LINAC,1USALAS) Experiment performed at Lujan Neutron  1414900100021 
           Scattering Center of LANSCE using the DANCE array      1414900100022 
SAMPLE     (92-U-235,ENR=0.94) In the thick-target experiment a   1414900100023 
           self-supporting sample with thickness of 26 mg/cm2     1414900100024 
           was used.                                              1414900100025 
           (92-U-235,ENR=0.999) For thin target measurements      1414900100026 
           enriched target with thickness of 130 mu-g/cm2 was     1414900100027 
           installed inside PPAC                                  1414900100028 
           (82-PB-208,ENR=0.99) Enriched 208Pb sample with        1414900100029 
           thickness of 120 mg/cm2 was used for neutron           1414900100030 
           scattering background measurement                      1414900100031 
DETECTOR   (BAF2) Gamma rays were measured using 4 Pi highly      1414900100032 
           segmented highly efficient gamma-ray calorimeter       1414900100033 
           DANCE. It consists of 160 BaF2 scintillation crystals, 1414900100034 
           and each one has the same solid-angle coverage. The    1414900100035 
           calorimeter has inner radius of 17 cm and each         1414900100036 
           crystal has length of 15 cm.                           1414900100037 
           (PPAC) Parallel plate avalanche counter was used to    1414900100038 
           detect fission fragments and tag the gamma rays from   1414900100039 
           fission.                                               1414900100040 
METHOD     (TOF) neutron energy determined by time of flight      1414900100041 
           method. Detection time of the "flash" of gamma rays    1414900100042 
           caused by the spallation reaction was used as a        1414900100043 
           reference marker. The detection time of the gamma rays 1414900100044 
           produced by neutrons interacting with the sample was   1414900100045 
           used to calculate the time of flight.                  1414900100046 
MONITOR    (92-U-235(N,G)92-U-236,,INT) A normalization constant  1414900100047 
           was obtained in the region of incident neutron         1414900100048 
           energies between 45 and 100 eV using ENDF/B-VII.1      1414900100049 
           data with cross section integral 837.8 eV*b.           1414900100050 
INC-SOURCE (SPALL) Pulsed neutron beam was produced via           1414900100051 
           spallation on a natural W target by an 800-MeV proton  1414900100052 
           linear accelerator beam. The average proton beam       1414900100053 
           current at the spallation target was about 1 - 2       1414900100054 
           mu-A. The neutron beam structure contained 625 mu-s    1414900100055 
           long 'macropulses' driven by two of every three such   1414900100056 
           macropulses from the accelerator for an average rate   1414900100057 
           of 40/s. Each macropulse consisted of 'micropulses'    1414900100058 
           spaced every 1.8 mu-s, each <1 ns long. The pulsed     1414900100059 
           beam allowed incident neutron energies to be           1414900100060 
           determined using the time-of-flight technique.         1414900100061 
ANALYSIS   Capture cross section was obtained by combination      1414900100062 
           of three independent experiments/measurements          1414900100063 
             1. Measurement with a thick sample to obtain a good  1414900100064 
                statistics of capture gamma rays                  1414900100065 
             2. Measurement with a thin sample inside a 4PI       1414900100066 
                parallel plate avalanche counter to measure       1414900100067 
                gamma rays associated with fission                1414900100068 
             3. Measurements of the neutron scattering background 1414900100069 
                using a 208Pb sample                              1414900100070 
           Overall fission gamma ray spectrum obtained in         1414900100071 
           coincidence with PPAC was normalized to thick target   1414900100072 
           data in high gamma multiplicity region M>6, where      1414900100073 
           only gamma rays associated with fission are emitted.   1414900100074 
           Multiplicity of capture gamma rays was 3<M<5.          1414900100075 
           Capture cross was normalized to ENDF/B-VII.1 data      1414900100076 
           between 45 and 100 eV with capture integral 837.8 b.   1414900100077 
HISTORY    (20080211C) Compiled by S.H.                           1414900100078 
           (20100315A) Reference to Nice 2007 conference added    1414900100079 
                       Edited status of subs. 2,3                 1414900100080 
                       Energy units corrected to eV.              1414900100081 
           (20120425A) S.H. NODATA Subentries 4,5,6 for data      1414900100082 
                       presented at Nice 2007 Conference inserted 1414900100083 
           (20130408C) S.H. rewritten sub 1, Compiled final data  1414900100084 
                       in sub 3, deleted subentries 4,5,6         1414900100085 
ENDBIB              83          0                                 1414900100086 
NOCOMMON             0          0                                 1414900100087 
ENDSUBENT           86          0                                 1414900199999 
SUBENT        14149002   20100428                             13621414900200001 
BIB                  3          4                                 1414900200002 
REACTION   (92-U-235(N,F),,SIG)                                   1414900200003 
STATUS     (CURVE,PRELM) data taken from fig. 5 of the NIM/B      1414900200004 
           reference, data are very preliminary.                  1414900200005 
ERR-ANALYS (DATA-ERR) No information given.                       1414900200006 
ENDBIB               4          0                                 1414900200007 
NOCOMMON             0          0                                 1414900200008 
DATA                 3        187                                 1414900200009 
EN         DATA       DATA-ERR                                    1414900200010 
EV         B          B                                           1414900200011 
  6.028E+00  2.928E+01  3.919E+00                                 1414900200012 
  6.080E+00  3.721E+01  5.490E+00                                 1414900200013 
  6.131E+00  4.803E+01  6.428E+00                                 1414900200014 
  6.196E+00  5.635E+01  7.541E+00                                 1414900200015 
  6.273E+00  6.505E+01  8.706E+00                                 1414900200016 
  6.325E+00  8.671E+01  7.920E+00                                 1414900200017 
  6.389E+00  1.212E+02  1.282E+01                                 1414900200018 
  6.441E+00  6.402E+01  8.568E+00                                 1414900200019 
  6.506E+00  2.128E+01  5.058E+00                                 1414900200020 
  6.557E+00  8.987E+00  2.661E+00                                 1414900200021 
  6.622E+00  6.851E+00  2.469E+00                                 1414900200022 
  6.687E+00  6.029E+00  2.234E+00                                 1414900200023 
  6.738E+00  7.909E+00  2.162E+00                                 1414900200024 
  6.803E+00  9.890E+00  2.817E+00                                 1414900200025 
  6.854E+00  1.237E+01  2.852E+00                                 1414900200026 
  6.906E+00  1.996E+01  4.251E+00                                 1414900200027 
  6.983E+00  3.841E+01  4.605E+00                                 1414900200028 
  7.034E+00  6.934E+01  7.332E+00                                 1414900200029 
  7.150E+00  6.934E+01  8.314E+00                                 1414900200030 
  7.163E+00  3.327E+01  7.500E+00                                 1414900200031 
  7.228E+00  1.361E+01  4.182E+00                                 1414900200032 
  7.280E+00  6.742E+00  2.697E+00                                 1414900200033 
  7.332E+00  3.918E+00  1.782E+00                                 1414900200034 
  7.383E+00  4.045E+00  1.909E+00                                 1414900200035 
  7.448E+00  3.981E+00  1.740E+00                                 1414900200036 
  7.499E+00  4.312E+00  2.107E+00                                 1414900200037 
  7.538E+00  3.676E+00  1.855E+00                                 1414900200038 
  7.577E+00  3.340E+00  1.737E+00                                 1414900200039 
  7.641E+00  2.389E+00  1.542E+00                                 1414900200040 
  7.693E+00  1.972E+00  1.395E+00                                 1414900200041 
  7.758E+00  2.758E+00  1.665E+00                                 1414900200042 
  7.835E+00  2.546E+00  1.505E+00                                 1414900200043 
  7.874E+00  3.560E+00  1.852E+00                                 1414900200044 
  7.951E+00  3.856E+00  1.686E+00                                 1414900200045 
  8.015E+00  4.244E+00  1.930E+00                                 1414900200046 
  8.067E+00  6.126E+00  2.451E+00                                 1414900200047 
  8.118E+00  8.987E+00  2.661E+00                                 1414900200048 
  8.183E+00  1.451E+01  3.623E+00                                 1414900200049 
  8.247E+00  1.675E+01  4.183E+00                                 1414900200050 
  8.299E+00  2.061E+01  4.754E+00                                 1414900200051 
  8.363E+00  3.327E+01  6.236E+00                                 1414900200052 
  8.428E+00  4.727E+01  4.318E+00                                 1414900200053 
  8.479E+00  7.046E+01  7.449E+00                                 1414900200054 
  8.544E+00  1.156E+02  1.222E+01                                 1414900200055 
  8.595E+00  1.807E+02  1.911E+01                                 1414900200056 
  8.672E+00  3.368E+02  3.076E+01                                 1414900200057 
  8.724E+00  5.351E+02  6.415E+01                                 1414900200058 
  8.801E+00  6.177E+02  7.406E+01                                 1414900200059 
  8.853E+00  4.279E+02  4.524E+01                                 1414900200060 
  8.905E+00  2.409E+02  2.200E+01                                 1414900200061 
  8.956E+00  1.565E+02  2.309E+01                                 1414900200062 
  9.034E+00  1.050E+02  1.259E+01                                 1414900200063 
  9.073E+00  8.952E+01  1.073E+01                                 1414900200064 
  9.137E+00  7.275E+01  6.644E+00                                 1414900200065 
  9.215E+00  8.671E+01  1.279E+01                                 1414900200066 
  9.266E+00  1.050E+02  1.405E+01                                 1414900200067 
  9.305E+00  8.006E+01  1.071E+01                                 1414900200068 
  9.382E+00  6.201E+01  8.299E+00                                 1414900200069 
  9.434E+00  4.579E+01  8.581E+00                                 1414900200070 
  9.512E+00  3.721E+01  6.486E+00                                 1414900200071 
  9.589E+00  3.072E+01  4.533E+00                                 1414900200072 
  9.679E+00  2.619E+01  4.217E+00                                 1414900200073 
  9.770E+00  3.072E+01  6.153E+00                                 1414900200074 
  9.795E+00  2.232E+01  4.754E+00                                 1414900200075 
  9.925E+00  1.934E+01  3.873E+00                                 1414900200076 
  9.976E+00  1.785E+01  3.112E+00                                 1414900200077 
  9.989E+00  1.297E+01  3.546E+00                                 1414900200078 
  1.005E+01  2.094E+01  3.925E+00                                 1414900200079 
  1.011E+01  2.791E+01  4.496E+00                                 1414900200080 
  1.017E+01  3.604E+01  6.283E+00                                 1414900200081 
  1.023E+01  3.023E+01  5.271E+00                                 1414900200082 
  1.027E+01  2.418E+01  5.747E+00                                 1414900200083 
  1.036E+01  1.996E+01  4.745E+00                                 1414900200084 
  1.041E+01  1.757E+01  3.741E+00                                 1414900200085 
  1.045E+01  1.088E+01  3.100E+00                                 1414900200086 
  1.053E+01  1.318E+01  3.133E+00                                 1414900200087 
  1.060E+01  1.071E+01  2.281E+00                                 1414900200088 
  1.067E+01  1.257E+01  3.434E+00                                 1414900200089 
  1.071E+01  1.071E+01  3.172E+00                                 1414900200090 
  1.076E+01  1.383E+01  3.463E+00                                 1414900200091 
  1.081E+01  1.142E+01  3.252E+00                                 1414900200092 
  1.091E+01  1.297E+01  2.992E+00                                 1414900200093 
  1.098E+01  1.198E+01  1.632E+00                                 1414900200094 
  1.100E+01  1.054E+01  3.003E+00                                 1414900200095 
  1.107E+01  1.361E+01  3.399E+00                                 1414900200096 
  1.112E+01  1.124E+01  3.201E+00                                 1414900200097 
  1.119E+01  1.428E+01  3.735E+00                                 1414900200098 
  1.125E+01  1.257E+01  2.987E+00                                 1414900200099 
  1.127E+01  1.142E+01  2.431E+00                                 1414900200100 
  1.132E+01  1.474E+01  2.952E+00                                 1414900200101 
  1.140E+01  1.648E+01  3.089E+00                                 1414900200102 
  1.143E+01  1.873E+01  3.265E+00                                 1414900200103 
  1.147E+01  2.380E+01  5.067E+00                                 1414900200104 
  1.156E+01  3.903E+01  6.286E+00                                 1414900200105 
  1.161E+01  5.203E+01  9.070E+00                                 1414900200106 
  1.167E+01  6.402E+01  1.116E+01                                 1414900200107 
  1.173E+01  4.803E+01  8.374E+00                                 1414900200108 
  1.180E+01  2.619E+01  5.576E+00                                 1414900200109 
  1.185E+01  1.934E+01  4.596E+00                                 1414900200110 
  1.192E+01  2.268E+01  3.036E+00                                 1414900200111 
  1.198E+01  2.577E+01  4.151E+00                                 1414900200112 
  1.203E+01  3.327E+01  5.358E+00                                 1414900200113 
  1.209E+01  4.365E+01  6.440E+00                                 1414900200114 
  1.214E+01  5.818E+01  6.975E+00                                 1414900200115 
  1.221E+01  8.810E+01  1.179E+01                                 1414900200116 
  1.226E+01  1.400E+02  2.254E+01                                 1414900200117 
  1.232E+01  2.447E+02  3.611E+01                                 1414900200118 
  1.239E+01  3.368E+02  5.871E+01                                 1414900200119 
  1.245E+01  2.693E+02  5.048E+01                                 1414900200120 
  1.250E+01  1.232E+02  2.309E+01                                 1414900200121 
  1.257E+01  4.959E+01  8.646E+00                                 1414900200122 
  1.263E+01  2.457E+01  4.716E+00                                 1414900200123 
  1.269E+01  1.873E+01  3.510E+00                                 1414900200124 
  1.275E+01  2.661E+01  4.285E+00                                 1414900200125 
  1.285E+01  2.536E+01  4.085E+00                                 1414900200126 
  1.287E+01  3.547E+01  6.183E+00                                 1414900200127 
  1.297E+01  2.704E+01  5.067E+00                                 1414900200128 
  1.300E+01  2.061E+01  4.389E+00                                 1414900200129 
  1.307E+01  1.702E+01  3.624E+00                                 1414900200130 
  1.319E+01  1.934E+01  3.371E+00                                 1414900200131 
  1.324E+01  2.791E+01  4.119E+00                                 1414900200132 
  1.337E+01  2.882E+01  5.401E+00                                 1414900200133 
  1.342E+01  2.305E+01  4.616E+00                                 1414900200134 
  1.349E+01  3.023E+01  3.625E+00                                 1414900200135 
  1.359E+01  3.721E+01  4.461E+00                                 1414900200136 
  1.365E+01  4.506E+01  6.031E+00                                 1414900200137 
  1.370E+01  5.371E+01  6.440E+00                                 1414900200138 
  1.378E+01  6.301E+01  5.755E+00                                 1414900200139 
  1.385E+01  7.046E+01  6.436E+00                                 1414900200140 
  1.395E+01  8.006E+01  8.464E+00                                 1414900200141 
  1.401E+01  9.243E+01  9.772E+00                                 1414900200142 
  1.407E+01  7.275E+01  8.721E+00                                 1414900200143 
  1.413E+01  6.402E+01  6.769E+00                                 1414900200144 
  1.419E+01  5.725E+01  6.864E+00                                 1414900200145 
  1.425E+01  4.803E+01  7.087E+00                                 1414900200146 
  1.431E+01  3.781E+01  5.578E+00                                 1414900200147 
  1.438E+01  4.228E+01  7.923E+00                                 1414900200148 
  1.443E+01  3.327E+01  6.236E+00                                 1414900200149 
  1.449E+01  3.966E+01  7.433E+00                                 1414900200150 
  1.456E+01  3.381E+01  6.771E+00                                 1414900200151 
  1.462E+01  2.232E+01  5.032E+00                                 1414900200152 
  1.467E+01  1.198E+01  3.134E+00                                 1414900200153 
  1.479E+01  1.038E+01  3.414E+00                                 1414900200154 
  1.484E+01  7.187E+00  2.735E+00                                 1414900200155 
  1.492E+01  1.124E+01  3.328E+00                                 1414900200156 
  1.498E+01  9.733E+00  2.883E+00                                 1414900200157 
  1.502E+01  1.142E+01  3.252E+00                                 1414900200158 
  1.510E+01  1.597E+01  3.987E+00                                 1414900200159 
  1.515E+01  1.217E+01  3.327E+00                                 1414900200160 
  1.520E+01  2.162E+01  4.604E+00                                 1414900200161 
  1.527E+01  3.121E+01  5.442E+00                                 1414900200162 
  1.533E+01  4.296E+01  5.150E+00                                 1414900200163 
  1.539E+01  6.006E+01  1.203E+01                                 1414900200164 
  1.543E+01  4.881E+01  1.100E+01                                 1414900200165 
  1.552E+01  3.841E+01  7.693E+00                                 1414900200166 
  1.559E+01  1.814E+01  4.311E+00                                 1414900200167 
  1.564E+01  8.431E+00  2.304E+00                                 1414900200168 
  1.569E+01  7.661E+00  2.839E+00                                 1414900200169 
  1.576E+01  9.890E+00  2.929E+00                                 1414900200170 
  1.581E+01  1.106E+01  2.628E+00                                 1414900200171 
  1.587E+01  1.277E+01  3.189E+00                                 1414900200172 
  1.592E+01  2.061E+01  4.646E+00                                 1414900200173 
  1.599E+01  3.662E+01  6.862E+00                                 1414900200174 
  1.605E+01  4.881E+01  6.532E+00                                 1414900200175 
  1.612E+01  6.505E+01  9.598E+00                                 1414900200176 
  1.618E+01  4.506E+01  7.856E+00                                 1414900200177 
  1.623E+01  2.704E+01  6.753E+00                                 1414900200178 
  1.630E+01  1.405E+01  4.161E+00                                 1414900200179 
  1.636E+01  9.733E+00  3.098E+00                                 1414900200180 
  1.641E+01  1.339E+01  3.815E+00                                 1414900200181 
  1.647E+01  1.814E+01  3.400E+00                                 1414900200182 
  1.653E+01  3.327E+01  3.989E+00                                 1414900200183 
  1.658E+01  4.727E+01  6.975E+00                                 1414900200184 
  1.666E+01  6.825E+01  9.133E+00                                 1414900200185 
  1.672E+01  6.201E+01  8.299E+00                                 1414900200186 
  1.677E+01  5.120E+01  6.852E+00                                 1414900200187 
  1.683E+01  3.721E+01  8.387E+00                                 1414900200188 
  1.689E+01  2.094E+01  4.721E+00                                 1414900200189 
  1.694E+01  1.405E+01  4.161E+00                                 1414900200190 
  1.701E+01  9.890E+00  2.929E+00                                 1414900200191 
  1.707E+01  8.431E+00  2.864E+00                                 1414900200192 
  1.714E+01  9.890E+00  3.148E+00                                 1414900200193 
  1.721E+01  8.297E+00  2.730E+00                                 1414900200194 
  1.732E+01  8.566E+00  2.726E+00                                 1414900200195 
  1.739E+01  8.166E+00  2.774E+00                                 1414900200196 
  1.743E+01  1.071E+01  3.292E+00                                 1414900200197 
  1.750E+01  4.452E+00  2.138E+00                                 1414900200198 
ENDDATA            189          0                                 1414900200199 
ENDSUBENT          198          0                                 1414900299999 
SUBENT        14149003   20130408                             13901414900300001 
BIB                  3          8                                 1414900300002 
REACTION   (92-U-235(N,G)92-U-236,,SIG)                           1414900300003 
STATUS     (TABLE) Data presented in fig.3,4 of the final         1414900300004 
                reference PRL sent by author (M.J.)               1414900300005 
ERR-ANALYS (DATA-ERR) total uncertainties. Uncertainties could not1414900300006 
           be separated to statistical and systematic uncertain-  1414900300007 
           ties, because of data correlations. A separate paper,  1414900300008 
           devoted to uncertainties is being prepared. After      1414900300009 
           publication of the paper, uncertainties will be updated1414900300010 
ENDBIB               8          0                                 1414900300011 
COMMON               3          3                                 1414900300012 
EN-NRM-MIN EN-NRM-MAX MONIT                                       1414900300013 
EV         EV         B*EV                                        1414900300014 
45.0       100.0      837.8                                       1414900300015 
ENDCOMMON            3          0                                 1414900300016 
DATA                 4       1113                                 1414900300017 
EN         EN-RSL     DATA       DATA-ERR                         1414900300018 
EV         EV         B          B                                1414900300019 
    4.02718    0.00927    4.34404    1.19815                      1414900300020 
    4.04577    0.00932    3.70273    1.08498                      1414900300021 
    4.06444    0.00936    3.06635    0.90688                      1414900300022 
     4.0832     0.0094    3.91284    1.04457                      1414900300023 
    4.10205    0.00945    4.06534    1.26251                      1414900300024 
    4.12099    0.00949    2.20138     0.8085                      1414900300025 
    4.14001    0.00953    5.06291    1.49761                      1414900300026 
    4.15912    0.00958    4.31554    1.18224                      1414900300027 
    4.17831    0.00962    1.83991    0.73411                      1414900300028 
     4.1976    0.00967    5.81204    1.51136                      1414900300029 
    4.21698    0.00971    2.41151    0.88567                      1414900300030 
    4.23644    0.00975    2.42869    1.00252                      1414900300031 
      4.256     0.0098    2.56948    0.85994                      1414900300032 
    4.27564    0.00985    4.56329    1.56516                      1414900300033 
    4.29538    0.00989    3.52278    1.18848                      1414900300034 
     4.3152    0.00994    3.78532    1.07089                      1414900300035 
    4.33512    0.00998    3.64694    1.06678                      1414900300036 
    4.35513    0.01003     2.8864    0.89175                      1414900300037 
    4.37523    0.01007    3.63557    1.10213                      1414900300038 
    4.39543    0.01012    3.26699    0.99847                      1414900300039 
    4.41572    0.01017    4.48894    1.29954                      1414900300040 
     4.4361    0.01021    5.04819    1.29572                      1414900300041 
    4.45657    0.01026    3.85347    1.18054                      1414900300042 
    4.47714    0.01031    4.04251    1.25311                      1414900300043 
    4.49781    0.01036    6.46769    1.61984                      1414900300044 
    4.51857     0.0104    5.22668    1.39398                      1414900300045 
    4.53943    0.01045     4.8595    1.22783                      1414900300046 
    4.56038     0.0105    4.94748    1.23415                      1414900300047 
    4.58143    0.01055    9.01765    2.07798                      1414900300048 
    4.60258     0.0106    8.13521    1.76103                      1414900300049 
    4.62382    0.01065    9.50537    2.01556                      1414900300050 
    4.64517     0.0107    9.50914    1.71405                      1414900300051 
    4.66661    0.01075     14.508    2.56577                      1414900300052 
    4.68815    0.01079    15.5825    2.42903                      1414900300053 
    4.70979    0.01084    19.4608    3.07552                      1414900300054 
    4.73153    0.01089    28.3492    4.11563                      1414900300055 
    4.75336    0.01095    31.4724    3.95935                      1414900300056 
    4.77531      0.011    59.5253    6.80178                      1414900300057 
    4.79735    0.01105    86.3792    8.37083                      1414900300058 
    4.81949     0.0111    104.054    8.08618                      1414900300059 
    4.84174    0.01115    132.628    9.62723                      1414900300060 
    4.86408     0.0112    128.565    8.99217                      1414900300061 
    4.88654    0.01125    110.189    8.16216                      1414900300062 
    4.90909     0.0113    77.5298    7.04078                      1414900300063 
    4.93175    0.01136    43.8535    4.83342                      1414900300064 
    4.95452    0.01141    24.6566    3.38218                      1414900300065 
    4.97738    0.01146    16.6386     2.5636                      1414900300066 
    5.00036    0.01151    11.9989    2.09261                      1414900300067 
    5.02344    0.01157    9.72062    1.89113                      1414900300068 
    5.04663    0.01162    7.55447    1.44678                      1414900300069 
    5.06992    0.01167    7.05342    1.44115                      1414900300070 
    5.09332    0.01173    7.70469    1.54997                      1414900300071 
    5.11683    0.01178     8.1738     1.6578                      1414900300072 
    5.14045    0.01184    9.48584    1.72589                      1414900300073 
    5.16418    0.01189    12.7722    2.36071                      1414900300074 
    5.18801    0.01195    7.30528    1.47361                      1414900300075 
    5.21196      0.012    9.95546    1.83027                      1414900300076 
    5.23602    0.01206    7.86053    1.49636                      1414900300077 
    5.26019    0.01211    5.12462    1.36737                      1414900300078 
    5.28447    0.01217     3.9498    1.13739                      1414900300079 
    5.30886    0.01222    3.03418    1.05672                      1414900300080 
    5.33336    0.01228    4.32656    1.16412                      1414900300081 
    5.35798    0.01234    4.96529    1.25462                      1414900300082 
    5.38271    0.01239    3.28028     1.1593                      1414900300083 
    5.40756    0.01245    3.46858    1.16393                      1414900300084 
    5.43252    0.01251    4.05408    1.24897                      1414900300085 
    5.45759    0.01257    5.14898    1.34325                      1414900300086 
    5.48278    0.01262    3.90989    1.19161                      1414900300087 
    5.50809    0.01268    2.84649    1.17006                      1414900300088 
    5.53352    0.01274    2.89216    1.12378                      1414900300089 
    5.55906     0.0128    7.23887    1.69516                      1414900300090 
    5.58472    0.01286    4.87351    1.37265                      1414900300091 
    5.61049    0.01292    4.75068    1.30948                      1414900300092 
    5.63639    0.01298    7.12892    1.70101                      1414900300093 
    5.66241    0.01304    5.00992    1.37263                      1414900300094 
    5.68854     0.0131    3.71157    1.12386                      1414900300095 
     5.7148    0.01316    4.69652    1.28213                      1414900300096 
    5.74118    0.01322    4.54707    1.24627                      1414900300097 
    5.76768    0.01328    4.36485    1.22551                      1414900300098 
     5.7943    0.01334    5.13369    1.33459                      1414900300099 
    5.82105     0.0134    6.10205    1.53459                      1414900300100 
    5.84792    0.01347    7.07243    1.47938                      1414900300101 
    5.87491    0.01353    3.83528    1.12418                      1414900300102 
    5.90203    0.01359    8.98393    1.69752                      1414900300103 
    5.92927    0.01365    8.97113     1.6469                      1414900300104 
    5.95664    0.01372    7.38296    1.44234                      1414900300105 
    5.98413    0.01378    10.5016    1.84623                      1414900300106 
    6.01175    0.01384    10.0757    1.77962                      1414900300107 
     6.0395    0.01391    14.1989    2.06012                      1414900300108 
    6.06738    0.01397    14.7522    2.10831                      1414900300109 
    6.09539    0.01404    18.8769    2.35506                      1414900300110 
    6.12352     0.0141    25.4557    2.82786                      1414900300111 
    6.15179    0.01417    30.7127     3.0073                      1414900300112 
    6.18018    0.01423    35.4248    3.17814                      1414900300113 
    6.20871     0.0143    45.1047    3.61777                      1414900300114 
    6.23736    0.01436    56.5881    3.90413                      1414900300115 
    6.26616    0.01443    84.4761    5.26549                      1414900300116 
    6.29508    0.01449    116.907    6.44615                      1414900300117 
    6.32414    0.01456    204.093    9.76467                      1414900300118 
    6.35333    0.01463    285.032    11.6858                      1414900300119 
    6.38265     0.0147    365.456      13.35                      1414900300120 
    6.41211    0.01476    335.757    12.0461                      1414900300121 
    6.44171    0.01483    247.798    9.96733                      1414900300122 
    6.47144     0.0149    146.764    7.46619                      1414900300123 
    6.50131    0.01497    60.9976    4.32204                      1414900300124 
    6.53132    0.01504    30.5188    2.91299                      1414900300125 
    6.56147    0.01511    21.0693     2.4654                      1414900300126 
    6.59176    0.01518    18.0272    2.43699                      1414900300127 
    6.62218    0.01525    10.1959    1.52389                      1414900300128 
    6.65275    0.01532    9.48793    1.66214                      1414900300129 
    6.68346    0.01539    7.84222    1.39428                      1414900300130 
    6.71431    0.01546    5.91278    1.10211                      1414900300131 
     6.7453    0.01553    9.36313    1.70966                      1414900300132 
    6.77643     0.0156    6.58482    1.27361                      1414900300133 
    6.80771    0.01568    7.33836    1.25777                      1414900300134 
    6.83913    0.01575    7.63469    1.42456                      1414900300135 
     6.8707    0.01582    11.2262    1.65953                      1414900300136 
    6.90242    0.01589    17.2993     2.2199                      1414900300137 
    6.93428    0.01597    16.8863    2.06988                      1414900300138 
    6.96628    0.01604    22.8718    2.54261                      1414900300139 
    6.99844    0.01611    36.7853    3.13776                      1414900300140 
    7.03074    0.01619    57.3831    4.17597                      1414900300141 
    7.06319    0.01626    96.3492    5.63561                      1414900300142 
     7.0958    0.01634    109.228    6.09001                      1414900300143 
    7.12855    0.01641    88.3609    5.20502                      1414900300144 
    7.16145    0.01649    52.8693    4.02902                      1414900300145 
    7.19451    0.01657    35.6639    3.34225                      1414900300146 
    7.22772    0.01664    18.7554    2.52438                      1414900300147 
    7.26108    0.01672    11.8408    2.10126                      1414900300148 
    7.29459     0.0168    13.2768    2.41385                      1414900300149 
    7.32826    0.01687    11.9648    2.33932                      1414900300150 
    7.36209    0.01695    6.14593    1.33309                      1414900300151 
    7.39607    0.01703     6.2822    1.44127                      1414900300152 
    7.43021    0.01711    4.56386    1.23351                      1414900300153 
    7.46451    0.01719    4.16759    1.09521                      1414900300154 
    7.49896    0.01727     4.1541    1.22064                      1414900300155 
    7.53358    0.01735    5.51651    1.50268                      1414900300156 
    7.56835    0.01743    5.43716    1.40628                      1414900300157 
    7.60328    0.01751    3.52292    1.04266                      1414900300158 
    7.63838    0.01759    4.74633    1.24023                      1414900300159 
    7.67364    0.01767    2.71341    0.95085                      1414900300160 
    7.70906    0.01775     2.4731    0.95243                      1414900300161 
    7.74464    0.01783    3.85795    1.06623                      1414900300162 
    7.78039    0.01792    6.12806    1.50219                      1414900300163 
     7.8163      0.018    5.54621    1.63632                      1414900300164 
    7.85238    0.01808    5.49189    1.39164                      1414900300165 
    7.88862    0.01816    3.09901    0.98953                      1414900300166 
    7.92503    0.01825    3.80463     1.0005                      1414900300167 
    7.96161    0.01833    3.97314    1.02019                      1414900300168 
    7.99836    0.01842    5.60941    1.25715                      1414900300169 
    8.03528     0.0185    6.51421    1.51071                      1414900300170 
    8.07237    0.01859    5.39968    1.14673                      1414900300171 
    8.10963    0.01867    6.34467    1.23075                      1414900300172 
    8.14706    0.01876     5.9123    1.30992                      1414900300173 
    8.18467    0.01885    5.56074    1.15356                      1414900300174 
    8.22245    0.01893    5.34877    1.11916                      1414900300175 
     8.2604    0.01902    7.98737    1.39183                      1414900300176 
    8.29853    0.01911    10.1341    1.52588                      1414900300177 
    8.33683     0.0192    10.0941    1.44379                      1414900300178 
    8.37532    0.01928    10.7057    1.54243                      1414900300179 
    8.41397    0.01937    16.7884    2.10241                      1414900300180 
    8.45281    0.01946    17.7469    2.11514                      1414900300181 
    8.49183    0.01955    22.2753    2.48794                      1414900300182 
    8.53102    0.01964    33.8788    3.07284                      1414900300183 
     8.5704    0.01973     52.057    4.15379                      1414900300184 
    8.60996    0.01983    65.7098    3.79067                      1414900300185 
     8.6497    0.01992    102.023    3.68754                      1414900300186 
    8.68963    0.02001    146.134    4.69656                      1414900300187 
    8.72974     0.0201    204.094    5.90633                      1414900300188 
    8.77003    0.02019    234.397    6.60492                      1414900300189 
    8.81051    0.02029    228.255    6.27712                      1414900300190 
    8.85118    0.02038    184.512    5.41302                      1414900300191 
    8.89203    0.02047    113.823     4.0931                      1414900300192 
    8.93308    0.02057    79.7353     3.2839                      1414900300193 
    8.97431    0.02066    51.7789    2.58603                      1414900300194 
    9.01574    0.02076    37.6456       2.17                      1414900300195 
    9.05735    0.02086     32.586    1.95967                      1414900300196 
    9.09916    0.02095    29.6747    1.90397                      1414900300197 
    9.14116    0.02105     29.943    1.89498                      1414900300198 
    9.18335    0.02115    34.8778    2.02774                      1414900300199 
    9.22574    0.02124    43.0488      2.232                      1414900300200 
    9.26832    0.02134    49.2566    2.35835                      1414900300201 
     9.3111    0.02144    49.0634     2.3155                      1414900300202 
    9.35408    0.02154    37.6329     2.0692                      1414900300203 
    9.39726    0.02164    24.2095    1.70254                      1414900300204 
    9.44063    0.02174    15.9886    1.38356                      1414900300205 
    9.48421    0.02184    10.1244    1.16049                      1414900300206 
    9.52799    0.02194    8.01803    1.03551                      1414900300207 
    9.57197    0.02204    8.63975    1.07341                      1414900300208 
    9.61615    0.02214    8.14543    1.03646                      1414900300209 
    9.66053    0.02224    7.85573    1.04886                      1414900300210 
    9.70513    0.02235    10.1624    1.13833                      1414900300211 
    9.74992    0.02245    8.75206    1.04565                      1414900300212 
    9.79493    0.02255    7.37887    0.96174                      1414900300213 
    9.84014    0.02266    9.17538    1.00404                      1414900300214 
    9.88556    0.02276    7.44375    0.95158                      1414900300215 
    9.93119    0.02287     7.6701     0.9691                      1414900300216 
    9.97703    0.02297    7.78316    0.93265                      1414900300217 
    10.0231    0.02308    9.44227    0.97335                      1414900300218 
    10.0693    0.02319     12.219    1.13922                      1414900300219 
    10.1158    0.02329    15.6113    1.26265                      1414900300220 
    10.1625     0.0234    18.8377     1.4163                      1414900300221 
    10.2094    0.02351    21.7928    1.54411                      1414900300222 
    10.2565    0.02362    12.0106    1.17187                      1414900300223 
    10.3039    0.02373    9.24687    1.02948                      1414900300224 
    10.3514    0.02384    4.66298    0.80931                      1414900300225 
    10.3992    0.02395    4.75611    0.74901                      1414900300226 
    10.4472    0.02406    4.98263    0.83926                      1414900300227 
    10.4955    0.02417    4.28418    0.72139                      1414900300228 
    10.5439    0.02428    5.24068    0.86991                      1414900300229 
    10.5926    0.02439    3.48583    0.66715                      1414900300230 
    10.6415     0.0245    3.74992    0.69857                      1414900300231 
    10.6906    0.02462    5.15268    0.80037                      1414900300232 
    10.7399    0.02473    4.28757    0.73505                      1414900300233 
    10.7895    0.02484    3.77442    0.71409                      1414900300234 
    10.8393    0.02496    4.72013    0.72065                      1414900300235 
    10.8893    0.02507    6.06838    0.84517                      1414900300236 
    10.9396    0.02519    5.46046    0.80453                      1414900300237 
    10.9901    0.02531     5.5953    0.79433                      1414900300238 
    11.0408    0.02542    8.23676    0.97666                      1414900300239 
    11.0918    0.02554    9.49306    1.01598                      1414900300240 
     11.143    0.02566    11.3418    1.09187                      1414900300241 
    11.1944    0.02578    13.6856    1.23103                      1414900300242 
    11.2461     0.0259    15.8153    1.25862                      1414900300243 
     11.298    0.02601    18.6303    1.38979                      1414900300244 
    11.3501    0.02613    22.5588    1.52249                      1414900300245 
    11.4025    0.02626    30.2284    1.76407                      1414900300246 
    11.4552    0.02638    44.5693    2.27459                      1414900300247 
     11.508     0.0265    68.8923    3.09308                      1414900300248 
    11.5612    0.02662    113.579    4.15948                      1414900300249 
    11.6145    0.02674    221.207    6.58417                      1414900300250 
    11.6681    0.02687    330.952    8.60715                      1414900300251 
     11.722    0.02699     304.92    8.22953                      1414900300252 
    11.7761    0.02712    168.616    5.73547                      1414900300253 
    11.8304    0.02724    63.2949    2.93311                      1414900300254 
    11.8851    0.02737    29.4725    1.67479                      1414900300255 
    11.9399    0.02749    24.5945    1.45214                      1414900300256 
     11.995    0.02762    27.2462    1.54935                      1414900300257 
    12.0504    0.02775    33.0207    1.68695                      1414900300258 
     12.106    0.02788    44.7096    2.01989                      1414900300259 
    12.1619      0.028     63.106    2.57307                      1414900300260 
     12.218    0.02813    97.0437    3.27728                      1414900300261 
    12.2744    0.02826    152.705    4.31123                      1414900300262 
    12.3311    0.02839    264.993    6.06079                      1414900300263 
     12.388    0.02852    422.672    8.28962                      1414900300264 
    12.4452    0.02866    440.959     8.5236                      1414900300265 
    12.5026    0.02879     280.29    6.35178                      1414900300266 
    12.5603    0.02892    123.898    3.94378                      1414900300267 
    12.6183    0.02905    58.6178    2.76914                      1414900300268 
    12.6766    0.02919    29.7134    1.82595                      1414900300269 
    12.7351    0.02932    20.4576    1.54077                      1414900300270 
    12.7938    0.02946    18.5198    1.35915                      1414900300271 
    12.8529    0.02959    14.3493    1.23391                      1414900300272 
    12.9122    0.02973    14.9282     1.2508                      1414900300273 
    12.9718    0.02987    11.4516    1.09237                      1414900300274 
    13.0317    0.03001    8.99143    0.98275                      1414900300275 
    13.0919    0.03015    8.26776     0.8928                      1414900300276 
    13.1523    0.03028    7.01196    0.82777                      1414900300277 
     13.213    0.03042    8.05733     0.9819                      1414900300278 
     13.274    0.03056    7.37183    0.93498                      1414900300279 
    13.3352    0.03071    8.18952    0.97462                      1414900300280 
    13.3968    0.03085    8.62298    0.95148                      1414900300281 
    13.4586    0.03099    7.06591    0.89989                      1414900300282 
    13.5208    0.03113    7.17364    0.96183                      1414900300283 
    13.5832    0.03128    7.63185    1.07088                      1414900300284 
    13.6459    0.03142    7.96231    1.11857                      1414900300285 
    13.7089    0.03157    10.2319    1.24523                      1414900300286 
    13.7721    0.03171    11.9058    1.37543                      1414900300287 
    13.8357    0.03186    12.6299    1.47334                      1414900300288 
    13.8996      0.032    9.87364     1.4323                      1414900300289 
    13.9637    0.03215    12.5102    1.45998                      1414900300290 
    14.0282     0.0323    12.1654    1.51299                      1414900300291 
    14.0929    0.03245    11.9719    1.48362                      1414900300292 
     14.158     0.0326    13.1111    1.46048                      1414900300293 
    14.2233    0.03275    10.2273    1.33388                      1414900300294 
     14.289     0.0329    13.5765    1.38471                      1414900300295 
    14.3549    0.03305    12.3733    1.28034                      1414900300296 
    14.4212    0.03321    18.2382    1.39085                      1414900300297 
    14.4878    0.03336     28.259    1.67571                      1414900300298 
    14.5546    0.03351    39.6954    2.07058                      1414900300299 
    14.6218    0.03367    36.2123    1.90359                      1414900300300 
    14.6893    0.03382    21.6974    1.58331                      1414900300301 
    14.7571    0.03398     8.0263     0.8639                      1414900300302 
    14.8252    0.03414    5.49173    0.73027                      1414900300303 
    14.8937    0.03429    5.36748    0.74473                      1414900300304 
    14.9624    0.03445     4.4073    0.69594                      1414900300305 
    15.0315    0.03461    6.66213     0.7934                      1414900300306 
    15.1008    0.03477    6.83526    0.86401                      1414900300307 
    15.1705    0.03493     9.0821    0.91931                      1414900300308 
    15.2406    0.03509    13.5356    1.12435                      1414900300309 
    15.3109    0.03525    20.4837    1.38249                      1414900300310 
    15.3816    0.03542    36.9473    1.94273                      1414900300311 
    15.4526    0.03558    45.4089    2.17259                      1414900300312 
    15.5239    0.03575    33.0338    1.78203                      1414900300313 
    15.5956    0.03591    21.6769     1.5223                      1414900300314 
    15.6676    0.03608    12.8961     1.1945                      1414900300315 
    15.7399    0.03624    11.4266    1.10333                      1414900300316 
    15.8125    0.03641    13.1484    1.11848                      1414900300317 
    15.8855    0.03658    20.2321    1.47356                      1414900300318 
    15.9588    0.03675    30.6289    1.70532                      1414900300319 
    16.0325    0.03692    60.3662    2.51305                      1414900300320 
    16.1065    0.03709    96.6873    3.32493                      1414900300321 
    16.1808    0.03726    82.7804    3.08756                      1414900300322 
    16.2555    0.03743    35.7502    1.99026                      1414900300323 
    16.3306     0.0376    14.9784    1.27199                      1414900300324 
    16.4059    0.03778    10.2252    1.00462                      1414900300325 
    16.4817    0.03795    13.3316    1.16636                      1414900300326 
    16.5577    0.03813    15.0294    1.30301                      1414900300327 
    16.6342     0.0383    22.4857    1.62597                      1414900300328 
     16.711    0.03848    24.3558     1.7489                      1414900300329 
    16.7881    0.03866     18.719    1.50995                      1414900300330 
    16.8656    0.03883    9.27189    1.09975                      1414900300331 
    16.9434    0.03901    6.34016    0.89071                      1414900300332 
    17.0216    0.03919    3.78224    0.69816                      1414900300333 
    17.1002    0.03937    4.01988    0.72853                      1414900300334 
    17.1791    0.03956    3.38295    0.64422                      1414900300335 
    17.2584    0.03974    2.85586    0.52219                      1414900300336 
    17.3381    0.03992    4.46905    0.69485                      1414900300337 
    17.4181    0.04011    2.76234    0.48706                      1414900300338 
    17.4985    0.04029    3.81948    0.61049                      1414900300339 
    17.5793    0.04048    3.66445     0.5577                      1414900300340 
    17.6604    0.04066    6.37533    0.76988                      1414900300341 
    17.7419    0.04085    6.67336    0.80191                      1414900300342 
    17.8238    0.04104    9.15113    0.97953                      1414900300343 
    17.9061    0.04123    14.5404    1.25675                      1414900300344 
    17.9888    0.04142    21.6311    1.60033                      1414900300345 
    18.0718    0.04161    25.4448    1.73215                      1414900300346 
    18.1552     0.0418    24.2882    1.70797                      1414900300347 
     18.239      0.042    16.7136    1.39904                      1414900300348 
    18.3232    0.04219     10.937    1.11128                      1414900300349 
    18.4078    0.04239    10.6263    1.07109                      1414900300350 
    18.4927    0.04258    11.8309    1.13079                      1414900300351 
    18.5781    0.04278    11.7801    1.00105                      1414900300352 
    18.6638    0.04298    15.9216    1.18904                      1414900300353 
      18.75    0.04317    21.7464    1.40474                      1414900300354 
    18.8365    0.04337    31.4156    1.70324                      1414900300355 
    18.9235    0.04357    45.6448    2.14972                      1414900300356 
    19.0108    0.04377    67.6878    2.66803                      1414900300357 
    19.0986    0.04398    103.041    3.51584                      1414900300358 
    19.1867    0.04418    166.432    4.69459                      1414900300359 
    19.2753    0.04438    280.879    6.62489                      1414900300360 
    19.3643    0.04459    328.448     7.2913                      1414900300361 
    19.4537    0.04479    209.774    5.54867                      1414900300362 
    19.5434      0.045    71.5672    2.97347                      1414900300363 
    19.6337    0.04521    29.2653    1.78609                      1414900300364 
    19.7243    0.04542    18.6503    1.42472                      1414900300365 
    19.8153    0.04563    13.6305    1.24214                      1414900300366 
    19.9068    0.04584    12.2032    1.13795                      1414900300367 
    19.9987    0.04605    9.82363     1.0469                      1414900300368 
     20.091    0.04626    12.1517    1.11287                      1414900300369 
    20.1837    0.04647    12.8104    1.11003                      1414900300370 
    20.2769    0.04669    13.2873     1.1013                      1414900300371 
    20.3705     0.0469    13.4108    1.04473                      1414900300372 
    20.4645    0.04712    17.5997    1.27952                      1414900300373 
     20.559    0.04734    26.5768     1.5521                      1414900300374 
    20.6539    0.04756    37.5074    1.89291                      1414900300375 
    20.7492    0.04778    41.9648     2.0139                      1414900300376 
     20.845      0.048    52.9218     2.3361                      1414900300377 
    20.9412    0.04822    83.5409    2.94131                      1414900300378 
    21.0378    0.04844    167.888    4.56934                      1414900300379 
    21.1349    0.04866    208.028     5.2071                      1414900300380 
    21.2325    0.04889    120.425    3.82751                      1414900300381 
    21.3305    0.04912    39.9157    2.23644                      1414900300382 
     21.429    0.04934    11.2767    1.06605                      1414900300383 
    21.5279    0.04957    7.15542    0.85466                      1414900300384 
    21.6272     0.0498     5.2483    0.75273                      1414900300385 
    21.7271    0.05003    4.74952    0.74087                      1414900300386 
    21.8274    0.05026    3.56374    0.56928                      1414900300387 
    21.9281    0.05049    6.05922    0.90968                      1414900300388 
    22.0293    0.05072     4.3318    0.69008                      1414900300389 
     22.131    0.05096    3.51059    0.58952                      1414900300390 
    22.2332    0.05119    5.31198    0.76228                      1414900300391 
    22.3358    0.05143    5.13186    0.69639                      1414900300392 
    22.4389    0.05167    8.44794    0.94325                      1414900300393 
    22.5425    0.05191    8.77263    0.87748                      1414900300394 
    22.6465    0.05215    13.4816    1.09128                      1414900300395 
     22.751    0.05239    17.2904    1.20619                      1414900300396 
     22.856    0.05263    34.1328    1.79054                      1414900300397 
    22.9615    0.05287    52.9586    2.34871                      1414900300398 
    23.0675    0.05311    57.3795     2.4842                      1414900300399 
     23.174    0.05336     42.154    2.05719                      1414900300400 
     23.281    0.05361    52.1553    2.20889                      1414900300401 
    23.3884    0.05385    111.219    3.60193                      1414900300402 
    23.4964     0.0541    144.711    4.18009                      1414900300403 
    23.6048    0.05435    84.6249    3.06437                      1414900300404 
    23.7138     0.0546    42.8432    2.27232                      1414900300405 
    23.8233    0.05486    26.9662    1.89763                      1414900300406 
    23.9332    0.05511    19.7771    1.56742                      1414900300407 
    24.0437    0.05536    17.6748    1.41676                      1414900300408 
    24.1547    0.05562    29.2125    1.74496                      1414900300409 
    24.2662    0.05587    42.1893    2.10273                      1414900300410 
    24.3782    0.05613    37.4845    2.04645                      1414900300411 
    24.4907    0.05639    20.4048    1.55913                      1414900300412 
    24.6037    0.05665    7.21585     1.1042                      1414900300413 
    24.7173    0.05691    4.60351    0.99737                      1414900300414 
    24.8314    0.05718    3.29018    0.93602                      1414900300415 
     24.946    0.05744    3.71251     0.9978                      1414900300416 
    25.0612    0.05771     3.4595    0.99991                      1414900300417 
    25.1768    0.05797     4.7131     1.0761                      1414900300418 
     25.293    0.05824    5.81597    1.18411                      1414900300419 
    25.4098    0.05851    5.75485    1.24688                      1414900300420 
    25.5271    0.05878    6.70464     1.2762                      1414900300421 
    25.6449    0.05905    7.49898    1.34323                      1414900300422 
    25.7633    0.05932    7.09343    1.30033                      1414900300423 
    25.8822     0.0596    7.86849    1.20544                      1414900300424 
    26.0017    0.05987    7.32826    1.01639                      1414900300425 
    26.1217    0.06015    8.07924    0.94637                      1414900300426 
    26.2423    0.06042    8.34626    0.98291                      1414900300427 
    26.3634     0.0607    11.9912    1.17015                      1414900300428 
    26.4851    0.06098    14.9267     1.4237                      1414900300429 
    26.6073    0.06127    13.3933    1.41894                      1414900300430 
    26.7301    0.06155    8.14082    1.13258                      1414900300431 
    26.8535    0.06183    7.37872    0.99587                      1414900300432 
    26.9775    0.06212    5.91311    0.86407                      1414900300433 
     27.102     0.0624    7.76255    0.88827                      1414900300434 
    27.2271    0.06269    8.24689    0.98179                      1414900300435 
    27.3528    0.06298    7.84841    0.91435                      1414900300436 
     27.479    0.06327    8.09014    0.95642                      1414900300437 
    27.6059    0.06356    10.6942     1.0472                      1414900300438 
    27.7333    0.06386    23.8897    1.59805                      1414900300439 
    27.8613    0.06415    33.8285    1.94541                      1414900300440 
    27.9899    0.06445    23.6958    1.66777                      1414900300441 
    28.1191    0.06475    12.2386    1.22253                      1414900300442 
    28.2489    0.06505    10.5906    1.07528                      1414900300443 
    28.3793    0.06535    9.43271    1.03485                      1414900300444 
    28.5103    0.06565    7.72236    0.91686                      1414900300445 
    28.6419    0.06595    4.66709    0.70428                      1414900300446 
    28.7741    0.06625    3.92366    0.64638                      1414900300447 
    28.9069    0.06656     3.4322    0.62165                      1414900300448 
    29.0403    0.06687    2.71116    0.54198                      1414900300449 
    29.1743    0.06718    3.12053    0.52813                      1414900300450 
     29.309    0.06749    2.53898    0.53439                      1414900300451 
    29.4443     0.0678    4.34467    0.66992                      1414900300452 
    29.5802    0.06811    9.52362     0.9344                      1414900300453 
    29.7167    0.06843    16.6937    1.28819                      1414900300454 
    29.8539    0.06874    11.0864     1.0673                      1414900300455 
    29.9917    0.06906    5.38891    0.69155                      1414900300456 
    30.1301    0.06938    4.42638    0.62733                      1414900300457 
    30.2692     0.0697    6.26089    0.74484                      1414900300458 
    30.4089    0.07002    9.34457    0.93546                      1414900300459 
    30.5493    0.07034    15.5335    1.19711                      1414900300460 
    30.6903    0.07067    23.6634    1.48628                      1414900300461 
     30.832    0.07099    41.8918    2.10777                      1414900300462 
    30.9743    0.07132    55.8281    2.63289                      1414900300463 
    31.1172    0.07165    24.0051     1.6262                      1414900300464 
    31.2609    0.07198    8.63803    0.85164                      1414900300465 
    31.4052    0.07231    6.79767    0.74995                      1414900300466 
    31.5501    0.07265    10.9845    1.03046                      1414900300467 
    31.6958    0.07298    16.4296    1.30734                      1414900300468 
    31.8421    0.07332    28.6893    1.70007                      1414900300469 
     31.989    0.07366    55.4222    2.42527                      1414900300470 
    32.1367      0.074    99.5064    3.43575                      1414900300471 
     32.285    0.07434    71.8585    2.98095                      1414900300472 
     32.434    0.07468     24.674    1.67039                      1414900300473 
    32.5838    0.07503    9.49636    0.90228                      1414900300474 
    32.7342    0.07537    8.59326    0.81178                      1414900300475 
    32.8853    0.07572    12.3453    1.05801                      1414900300476 
     33.037    0.07607    17.7074    1.31623                      1414900300477 
    33.1895    0.07642    23.9616    1.47839                      1414900300478 
    33.3427    0.07677    48.1369    2.15391                      1414900300479 
    33.4966    0.07713    113.488     3.6494                      1414900300480 
    33.6512    0.07748    147.992    4.40736                      1414900300481 
    33.8066    0.07784    61.3123    2.63918                      1414900300482 
    33.9626     0.0782    32.8815    1.80532                      1414900300483 
    34.1194    0.07856    40.3671    1.97534                      1414900300484 
    34.2769    0.07893    76.5402    3.29258                      1414900300485 
    34.4351    0.07929     132.68    4.97146                      1414900300486 
     34.594    0.07966     91.409    3.53045                      1414900300487 
    34.7537    0.08002    58.1379    2.32834                      1414900300488 
    34.9141    0.08039    86.6199    2.95771                      1414900300489 
    35.0753    0.08076      113.7    3.35388                      1414900300490 
    35.2372    0.08114    142.232    3.94706                      1414900300491 
    35.3998    0.08151    109.833     3.6172                      1414900300492 
    35.5632    0.08189    35.7714    2.04524                      1414900300493 
    35.7274    0.08227      12.38    1.20419                      1414900300494 
    35.8923    0.08264    5.51092    0.88113                      1414900300495 
     36.058    0.08303    4.64743    0.75391                      1414900300496 
    36.2244    0.08341    2.43942     0.5634                      1414900300497 
    36.3916    0.08379    2.16128    0.49273                      1414900300498 
    36.5596    0.08418    2.35572    0.50588                      1414900300499 
    36.7283    0.08457     2.1458    0.46807                      1414900300500 
    36.8979    0.08496    2.00737    0.45766                      1414900300501 
    37.0682    0.08535    1.88432    0.44114                      1414900300502 
    37.2393    0.08575    1.85409    0.44153                      1414900300503 
    37.4112    0.08614    3.10818    0.51771                      1414900300504 
    37.5838    0.08654    2.18133    0.49436                      1414900300505 
    37.7573    0.08694    2.74654    0.51398                      1414900300506 
    37.9316    0.08734    4.00118    0.59579                      1414900300507 
    38.1067    0.08774    4.83054    0.62842                      1414900300508 
    38.2826    0.08815    6.55232    0.74827                      1414900300509 
    38.4593    0.08856    7.37045    0.81918                      1414900300510 
    38.6368    0.08896    8.38479    0.81943                      1414900300511 
    38.8151    0.08938    11.5429    0.93554                      1414900300512 
    38.9943    0.08979    16.1102    1.09852                      1414900300513 
    39.1743     0.0902    28.0741    1.41217                      1414900300514 
    39.3551    0.09062    59.8532    2.14476                      1414900300515 
    39.5368    0.09104    85.3199    2.74386                      1414900300516 
    39.7193    0.09146     40.848    1.94297                      1414900300517 
    39.9026    0.09188    13.5252    1.05736                      1414900300518 
    40.0868     0.0923    8.65746    0.87791                      1414900300519 
    40.2718    0.09273       9.15     0.8963                      1414900300520 
    40.4577    0.09316    7.11385    0.79726                      1414900300521 
    40.6444    0.09359    8.36742    0.89185                      1414900300522 
     40.832    0.09402    9.02176    0.93612                      1414900300523 
    41.0205    0.09445     7.9237    0.82697                      1414900300524 
    41.2099    0.09489     12.817    1.00566                      1414900300525 
    41.4001    0.09533    19.9923    1.23387                      1414900300526 
    41.5912    0.09577    30.2218    1.51565                      1414900300527 
    41.7831    0.09621    53.1691    2.00681                      1414900300528 
     41.976    0.09665     88.654    2.87021                      1414900300529 
    42.1698     0.0971    50.7712    2.08973                      1414900300530 
    42.3644    0.09755    19.6069    1.21276                      1414900300531 
      42.56      0.098    19.8028    1.27022                      1414900300532 
    42.7564    0.09845      23.93    1.33219                      1414900300533 
    42.9538     0.0989    18.4488    1.12596                      1414900300534 
     43.152    0.09936    13.7793    0.95307                      1414900300535 
    43.3512    0.09982    26.3814    1.32855                      1414900300536 
    43.5513    0.10028    40.2219    1.77933                      1414900300537 
    43.7523    0.10074    14.4265    1.06995                      1414900300538 
    43.9543    0.10121    9.03229    0.90979                      1414900300539 
    44.1572    0.10168    10.8161    1.02404                      1414900300540 
     44.361    0.10215     7.6485    0.91708                      1414900300541 
    44.5657    0.10262    14.1911    1.13284                      1414900300542 
    44.7714    0.10309     16.302    1.25553                      1414900300543 
    44.9781    0.10357    8.67133     0.9819                      1414900300544 
    45.1857    0.10404    5.35057    0.83367                      1414900300545 
    45.3943    0.10452    5.36727    0.77569                      1414900300546 
    45.6038    0.10501    4.11933    0.66682                      1414900300547 
    45.8143    0.10549    6.49674    0.73048                      1414900300548 
    46.0258    0.10598    7.14914    0.79114                      1414900300549 
    46.2382    0.10647     7.0221      0.758                      1414900300550 
    46.4517    0.10696    7.14913    0.71282                      1414900300551 
    46.6661    0.10745    12.6527      0.948                      1414900300552 
    46.8815    0.10795    22.0536    1.31989                      1414900300553 
    47.0979    0.10845    26.8161    1.56732                      1414900300554 
    47.3153    0.10895    21.2251    1.42026                      1414900300555 
    47.5336    0.10945    11.7791    1.00869                      1414900300556 
    47.7531    0.10996    14.8999    1.02242                      1414900300557 
    47.9735    0.11046     32.466    1.55668                      1414900300558 
    48.1949    0.11097    34.7099    1.70058                      1414900300559 
    48.4174    0.11149    19.4457    1.32696                      1414900300560 
    48.6408      0.112     24.652    1.42728                      1414900300561 
    48.8654    0.11252    29.2195     1.4929                      1414900300562 
    49.0909    0.11304    24.8234    1.44797                      1414900300563 
    49.3175    0.11356     29.557    1.49101                      1414900300564 
    49.5452    0.11408    49.7912    2.01422                      1414900300565 
    49.7738    0.11461    29.2699     1.5173                      1414900300566 
    50.0036    0.11514    15.7513    1.04608                      1414900300567 
    50.2344    0.11567    24.0086    1.28794                      1414900300568 
    50.4663     0.1162    34.0551    1.60737                      1414900300569 
    50.6992    0.11674    34.1767    1.70106                      1414900300570 
    50.9332    0.11728    21.2644    1.37548                      1414900300571 
    51.1683    0.11782    29.5939    1.63656                      1414900300572 
    51.4045    0.11836     58.631    2.38768                      1414900300573 
    51.6418    0.11891    44.8822    2.14738                      1414900300574 
    51.8801    0.11946    18.2616    1.32642                      1414900300575 
    52.1196    0.12001    10.7364    1.21214                      1414900300576 
    52.3602    0.12056    11.5186    1.32724                      1414900300577 
    52.6019    0.12112    9.01676    1.20473                      1414900300578 
    52.8447    0.12168     6.3199    0.87156                      1414900300579 
    53.0886    0.12224    5.35538    0.70034                      1414900300580 
    53.3336    0.12281    8.07437    0.76525                      1414900300581 
    53.5798    0.12337    12.1816    0.96633                      1414900300582 
    53.8271    0.12394    9.55649    0.89011                      1414900300583 
    54.0756    0.12451    7.97172     0.7931                      1414900300584 
    54.3252    0.12509    12.1567    0.94788                      1414900300585 
    54.5759    0.12567    15.7013    1.03096                      1414900300586 
    54.8278    0.12625    27.7292    1.38253                      1414900300587 
    55.0809    0.12683    58.4992    2.11029                      1414900300588 
    55.3352    0.12741    78.3324    2.66683                      1414900300589 
    55.5906      0.128    25.7003    1.53852                      1414900300590 
    55.8472    0.12859     25.579    1.57795                      1414900300591 
    56.1049    0.12919    36.7135    1.94812                      1414900300592 
    56.3639    0.12978    55.5287    2.28081                      1414900300593 
    56.6241    0.13038    84.0602    2.81115                      1414900300594 
    56.8854    0.13098    52.2135    2.38858                      1414900300595 
     57.148    0.13159    11.8033    1.14258                      1414900300596 
    57.4118     0.1322    9.84372    0.91279                      1414900300597 
    57.6768    0.13281    15.1714    1.10017                      1414900300598 
     57.943    0.13342    28.4974    1.51439                      1414900300599 
    58.2105    0.13403    52.0902    2.17114                      1414900300600 
    58.4792    0.13465    27.6791    1.53651                      1414900300601 
    58.7491    0.13528    16.6704     1.1729                      1414900300602 
    59.0203     0.1359    10.3826    1.06191                      1414900300603 
    59.2927    0.13653    4.03358    0.72039                      1414900300604 
    59.5664    0.13716    4.21664     0.6175                      1414900300605 
    59.8413    0.13779    5.19948    0.70871                      1414900300606 
    60.1175    0.13843    5.75505    0.80041                      1414900300607 
     60.395    0.13906    8.82942    1.02413                      1414900300608 
    60.6738    0.13971    8.04883     0.9534                      1414900300609 
    60.9539    0.14035    8.32462      0.838                      1414900300610 
    61.2352      0.141    7.60433    0.83516                      1414900300611 
    61.5179    0.14165    3.30759     0.6645                      1414900300612 
    61.8018     0.1423    1.69205     0.5072                      1414900300613 
    62.0871    0.14296    2.64788    0.51268                      1414900300614 
    62.3736    0.14362    2.33461    0.53059                      1414900300615 
    62.6616    0.14428    3.46097    0.58246                      1414900300616 
    62.9508    0.14495    4.28254    0.65017                      1414900300617 
    63.2414    0.14562    4.43901    0.62211                      1414900300618 
    63.5333    0.14629    6.98831    0.76778                      1414900300619 
    63.8265    0.14697    10.2209    0.93129                      1414900300620 
    64.1211    0.14764    24.0378    1.45415                      1414900300621 
    64.4171    0.14833    45.4745    2.32009                      1414900300622 
    64.7144    0.14901    24.2311    1.69021                      1414900300623 
    65.0131     0.1497    3.85551    0.59995                      1414900300624 
    65.3132    0.15039    3.46113    0.51643                      1414900300625 
    65.6147    0.15108    5.38852     0.5937                      1414900300626 
    65.9176    0.15178    10.8014     0.8941                      1414900300627 
    66.2218    0.15248    8.26224    0.79847                      1414900300628 
    66.5275    0.15319    8.33126    0.74289                      1414900300629 
    66.8346    0.15389     6.6431    0.85024                      1414900300630 
    67.1431     0.1546    2.51098    0.44723                      1414900300631 
     67.453    0.15532    1.21322     0.2941                      1414900300632 
    67.7643    0.15603    1.27391    0.34409                      1414900300633 
    68.0771    0.15675    1.56021    0.35695                      1414900300634 
    68.3913    0.15748    2.64011    0.42326                      1414900300635 
     68.707     0.1582    3.86438    0.52049                      1414900300636 
    69.0242    0.15893    3.46325    0.53123                      1414900300637 
    69.3428    0.15967    6.17693    0.74971                      1414900300638 
    69.6628     0.1604    6.81474    0.84542                      1414900300639 
    69.9844    0.16115    10.0188    0.91459                      1414900300640 
    70.3074    0.16189    17.7881    1.17413                      1414900300641 
    70.6319    0.16264    34.0826    1.75755                      1414900300642 
     70.958    0.16339    23.6946    1.60278                      1414900300643 
    71.2855    0.16414    11.7698    1.16736                      1414900300644 
    71.6145     0.1649    6.06623    0.75485                      1414900300645 
    71.9451    0.16566    8.00183    0.78902                      1414900300646 
    72.2772    0.16642    11.4638    0.90031                      1414900300647 
    72.6108    0.16719      19.86    1.30269                      1414900300648 
    72.9459    0.16796    11.9924    1.17476                      1414900300649 
    73.2826    0.16874    5.27626    0.75677                      1414900300650 
    73.6209    0.16952    5.00259    0.66082                      1414900300651 
    73.9607     0.1703    7.91898    0.79111                      1414900300652 
    74.3021    0.17109     15.661    1.04991                      1414900300653 
    74.6451    0.17188    31.8898    1.54586                      1414900300654 
    74.9896    0.17267    22.6938    1.49868                      1414900300655 
    75.3358    0.17347    10.5355     1.0379                      1414900300656 
    75.6835    0.17427    8.42138    0.93599                      1414900300657 
    76.0328    0.17507    7.52789     0.9321                      1414900300658 
    76.3838    0.17588    3.67884    0.62916                      1414900300659 
    76.7364    0.17669    3.36953    0.50755                      1414900300660 
    77.0906    0.17751    4.65052    0.59112                      1414900300661 
    77.4464    0.17833    7.95151     0.7719                      1414900300662 
    77.8039    0.17915    12.1023    1.00079                      1414900300663 
     78.163    0.17998    11.2547     0.9718                      1414900300664 
    78.5238    0.18081    12.5786    1.09694                      1414900300665 
    78.8862    0.18164    3.57875    0.61848                      1414900300666 
    79.2503    0.18248    3.77769    0.53259                      1414900300667 
    79.6161    0.18332    6.08211    0.64408                      1414900300668 
    79.9836    0.18417    10.0184    0.89365                      1414900300669 
    80.3528    0.18502    8.88519    0.82775                      1414900300670 
    80.7237    0.18587     8.6186    0.86119                      1414900300671 
    81.0963    0.18673    8.57112    0.81153                      1414900300672 
    81.4706    0.18759    10.2015    0.83342                      1414900300673 
    81.8467    0.18846    14.5452    1.11725                      1414900300674 
    82.2245    0.18933    10.6782     0.8965                      1414900300675 
     82.604     0.1902    19.1055    1.12576                      1414900300676 
    82.9853    0.19108    28.2071    1.45999                      1414900300677 
    83.3683    0.19196    13.8102     1.0556                      1414900300678 
    83.7532    0.19285    18.9339      1.167                      1414900300679 
    84.1397    0.19374    15.5306    1.26975                      1414900300680 
    84.5281    0.19463     15.215    1.37386                      1414900300681 
    84.9183    0.19553    6.59338    1.02573                      1414900300682 
    85.3102    0.19643    4.33964    0.86751                      1414900300683 
     85.704    0.19734    2.60076    0.70802                      1414900300684 
    86.0996    0.19825    5.66867    0.74172                      1414900300685 
     86.497    0.19917    3.70182    0.53688                      1414900300686 
    86.8963    0.20009    5.65464     0.6663                      1414900300687 
    87.2974    0.20101    6.17702    0.71304                      1414900300688 
    87.7003    0.20194    5.84309    0.71579                      1414900300689 
    88.1051    0.20287    7.84377    0.82363                      1414900300690 
    88.5118    0.20381    6.72583    0.77632                      1414900300691 
    88.9203    0.20475    12.1947    1.05397                      1414900300692 
    89.3308    0.20569    19.6917    1.35882                      1414900300693 
    89.7431    0.20664    22.6824    1.39576                      1414900300694 
    90.1574     0.2076    41.3673    1.88809                      1414900300695 
    90.5735    0.20855    79.5919    2.89258                      1414900300696 
    90.9916    0.20952    32.7082    1.61573                      1414900300697 
    91.4116    0.21048    13.5999    1.10032                      1414900300698 
    91.8335    0.21145    16.9054     1.2947                      1414900300699 
    92.2574    0.21243    17.6754    1.15103                      1414900300700 
    92.6832    0.21341    26.7746     1.3744                      1414900300701 
     93.111     0.2144    32.2563    1.84283                      1414900300702 
    93.5408    0.21539    18.3762    1.33006                      1414900300703 
    93.9726    0.21638    32.4721      1.823                      1414900300704 
    94.4063    0.21738     53.883    2.48497                      1414900300705 
    94.8421    0.21838    14.6704    1.08997                      1414900300706 
    95.2799    0.21939     4.5528    0.63937                      1414900300707 
    95.7197     0.2204    2.86711    0.59826                      1414900300708 
    96.1615    0.22142    1.57672    0.59879                      1414900300709 
    96.6053    0.22244    2.09687     0.5475                      1414900300710 
    97.0513    0.22347    2.52527    0.58233                      1414900300711 
    97.4992     0.2245    4.11515    0.57378                      1414900300712 
    97.9493    0.22554    4.90704    0.61573                      1414900300713 
    98.4014    0.22658    9.47804    0.97304                      1414900300714 
    98.8556    0.22762    7.03853    0.90325                      1414900300715 
    99.3119    0.22867    3.73543    0.52702                      1414900300716 
    99.7703    0.22973     4.2356    0.52642                      1414900300717 
    100.231    0.23079    5.20874    0.62411                      1414900300718 
    100.693    0.23186    9.91076    0.83205                      1414900300719 
    101.158    0.23293     11.446    0.94158                      1414900300720 
    101.625      0.234     10.679    1.06337                      1414900300721 
    102.094    0.23508    7.41768    0.74929                      1414900300722 
    102.565    0.23617    8.99905    0.80499                      1414900300723 
    103.039    0.23726    16.0621    1.07505                      1414900300724 
    103.514    0.23835    23.8755    1.46823                      1414900300725 
    103.992    0.23945    20.0339    1.36264                      1414900300726 
    104.472    0.24056    6.55732    0.82797                      1414900300727 
    104.955    0.24167    8.24287     0.7748                      1414900300728 
    105.439    0.24278    10.3199    0.95544                      1414900300729 
    105.926     0.2439    13.0515    1.16365                      1414900300730 
    106.415    0.24503    10.8661    0.92818                      1414900300731 
    106.906    0.24616    14.8288    1.13241                      1414900300732 
    107.399     0.2473     26.418    1.59548                      1414900300733 
    107.895    0.24844    52.5134    2.40928                      1414900300734 
    108.393    0.24958    32.7461    2.04184                      1414900300735 
    108.893    0.25074    14.1112    1.06121                      1414900300736 
    109.396    0.25189    20.9539     1.4079                      1414900300737 
    109.901    0.25306    26.6816    1.67662                      1414900300738 
    110.408    0.25422    22.2689    1.48546                      1414900300739 
    110.918     0.2554    7.11972      0.908                      1414900300740 
     111.43    0.25658    5.47481    0.61278                      1414900300741 
    111.944    0.25776    11.1077    0.94651                      1414900300742 
    112.461    0.25895    7.21956    0.79801                      1414900300743 
     112.98    0.26015    6.34586    0.62324                      1414900300744 
    113.501    0.26135    5.72634    0.67084                      1414900300745 
    114.025    0.26255    5.17529    0.74246                      1414900300746 
    114.552    0.26376    4.12189    0.64956                      1414900300747 
     115.08    0.26498    4.71788    0.57846                      1414900300748 
    115.612    0.26621    5.98297    0.70846                      1414900300749 
    116.145    0.26743    6.31301    0.82338                      1414900300750 
    116.681    0.26867     6.0272    0.91793                      1414900300751 
     117.22    0.26991     3.4136    0.60086                      1414900300752 
    117.761    0.27115    3.84364    0.60586                      1414900300753 
    118.304    0.27241    8.78813    0.87816                      1414900300754 
    118.851    0.27366    21.2463    1.34718                      1414900300755 
    119.399    0.27493    10.2587    1.06329                      1414900300756 
     119.95     0.2762    3.03979    0.58768                      1414900300757 
    120.504    0.27747    4.22984    0.62127                      1414900300758 
     121.06    0.27875     3.3287    0.59666                      1414900300759 
    121.619    0.28004    8.74364    0.82102                      1414900300760 
     122.18    0.28133    19.6053    1.31054                      1414900300761 
    122.744    0.28263     20.999    1.65164                      1414900300762 
    123.311    0.28393    9.78401    0.84997                      1414900300763 
     123.88    0.28524    5.60911    0.64202                      1414900300764 
    124.452    0.28656    8.40693    0.82983                      1414900300765 
    125.026    0.28788    15.5333    1.06357                      1414900300766 
    125.603    0.28921    22.8521    1.34037                      1414900300767 
    126.183    0.29055    24.3727    1.40468                      1414900300768 
    126.766    0.29189    12.3917    1.24277                      1414900300769 
    127.351    0.29324    6.72587    0.95807                      1414900300770 
    127.938    0.29459    5.47722     0.7125                      1414900300771 
    128.529    0.29595    9.76935    0.93266                      1414900300772 
    129.122    0.29731    7.21635    0.83131                      1414900300773 
    129.718    0.29869     10.396    0.87524                      1414900300774 
    130.317    0.30007    19.1535    1.30772                      1414900300775 
    130.919    0.30145    6.04843    0.69871                      1414900300776 
    131.523    0.30284    6.06597    0.80829                      1414900300777 
     132.13    0.30424      8.724    1.03451                      1414900300778 
     132.74    0.30564    13.0662    1.13222                      1414900300779 
    133.352    0.30706    17.4332    1.24747                      1414900300780 
    133.968    0.30847    30.7601    1.66083                      1414900300781 
    134.586     0.3099       12.9    1.07919                      1414900300782 
    135.208    0.31133    9.05373    0.92535                      1414900300783 
    135.832    0.31276    15.5692    1.30915                      1414900300784 
    136.459    0.31421    33.1919     1.9481                      1414900300785 
    137.089    0.31566     17.364    1.26521                      1414900300786 
    137.721    0.31711    15.7247     1.0665                      1414900300787 
    138.357    0.31858    13.2827    1.19936                      1414900300788 
    138.996    0.32005    5.38783    0.63306                      1414900300789 
    139.637    0.32153    6.58428    0.70647                      1414900300790 
    140.282    0.32301    5.65284    0.68041                      1414900300791 
    140.929     0.3245     6.8354    0.75584                      1414900300792 
     141.58      0.326     10.273    0.84262                      1414900300793 
    142.233     0.3275    20.0243     1.1888                      1414900300794 
     142.89    0.32902      17.41    1.33991                      1414900300795 
    143.549    0.33053     3.6401    0.62838                      1414900300796 
    144.212    0.33206    4.80688    0.64048                      1414900300797 
    144.878    0.33359    5.55478    0.59788                      1414900300798 
    145.546    0.33513    14.1928    1.00457                      1414900300799 
    146.218    0.33668    25.4905    1.55083                      1414900300800 
    146.893    0.33823    8.78744    0.89564                      1414900300801 
    147.571    0.33979    9.96032    0.86818                      1414900300802 
    148.252    0.34136    9.68224    0.97202                      1414900300803 
    148.937    0.34294    6.66562    0.71529                      1414900300804 
    149.624    0.34452    11.3635     1.0141                      1414900300805 
    150.315    0.34611    10.5472    1.04139                      1414900300806 
    151.008    0.34771    7.90825    0.87154                      1414900300807 
    151.705    0.34931    8.21813    0.78811                      1414900300808 
    152.406    0.35093    7.88554    0.77901                      1414900300809 
    153.109    0.35255    9.72697    0.79926                      1414900300810 
    153.816    0.35417    19.7816    1.22571                      1414900300811 
    154.526    0.35581    13.7949    1.18734                      1414900300812 
    155.239    0.35745    11.7317    0.91892                      1414900300813 
    155.956     0.3591     16.948    1.11896                      1414900300814 
    156.676    0.36076     20.765    1.24868                      1414900300815 
    157.399    0.36242    20.8242    1.29128                      1414900300816 
    158.125     0.3641    9.71915    0.88416                      1414900300817 
    158.855    0.36578    6.16882     0.6891                      1414900300818 
    159.588    0.36747    9.48414    0.92035                      1414900300819 
    160.325    0.36916    17.8079    1.27734                      1414900300820 
    161.065    0.37087    23.1711    1.34465                      1414900300821 
    161.808    0.37258    20.9798    1.32546                      1414900300822 
    162.555     0.3743    4.21438    0.61532                      1414900300823 
    163.306    0.37602    5.27115    0.71054                      1414900300824 
    164.059    0.37776    9.32834    0.91743                      1414900300825 
    164.817     0.3795    9.59561    1.05313                      1414900300826 
    165.577    0.38126    10.6931     0.8867                      1414900300827 
    166.342    0.38302     13.592    1.03518                      1414900300828 
     167.11    0.38478    6.11987    0.83935                      1414900300829 
    167.881    0.38656    4.58412      0.707                      1414900300830 
    168.656    0.38834    7.33236    0.88443                      1414900300831 
    169.434    0.39014    6.86754    0.88708                      1414900300832 
    170.216    0.39194    5.48397    0.73928                      1414900300833 
    171.002    0.39375    6.19467    0.76114                      1414900300834 
    171.791    0.39556    4.10447    0.56851                      1414900300835 
    172.584    0.39739    4.84068    0.63976                      1414900300836 
    173.381    0.39922    3.51655    0.54969                      1414900300837 
    174.181    0.40107    7.36539    0.77107                      1414900300838 
    174.985    0.40292    11.5456    1.03104                      1414900300839 
    175.793    0.40478    8.92959    0.97962                      1414900300840 
    176.604    0.40665    8.15604    0.84999                      1414900300841 
    177.419    0.40852    16.3747    1.17724                      1414900300842 
    178.238    0.41041    31.2334    1.67568                      1414900300843 
    179.061     0.4123    30.7364    1.84486                      1414900300844 
    179.888    0.41421    20.5147    1.29394                      1414900300845 
    180.718    0.41612    14.4177    1.00944                      1414900300846 
    181.552    0.41804    10.2068    0.96622                      1414900300847 
     182.39    0.41997    8.99336    0.85784                      1414900300848 
    183.232    0.42191    10.2542    1.00916                      1414900300849 
    184.078    0.42385    4.83203    0.67228                      1414900300850 
    184.927    0.42581      6.414    0.77568                      1414900300851 
    185.781    0.42778    2.84917    0.43754                      1414900300852 
    186.638    0.42975    4.48573     0.5802                      1414900300853 
      187.5    0.43173    3.10744    0.52282                      1414900300854 
    188.365    0.43373    5.14047    0.61824                      1414900300855 
    189.235    0.43573     10.272    0.84876                      1414900300856 
    190.108    0.43774    16.0954    1.07783                      1414900300857 
    190.986    0.43976    8.60228    0.89028                      1414900300858 
    191.867    0.44179    8.62961    0.78374                      1414900300859 
    192.753    0.44383    17.5529    1.14016                      1414900300860 
    193.643    0.44588    11.8816    1.20438                      1414900300861 
    194.537    0.44794    4.60642    0.64437                      1414900300862 
    195.434       0.45    5.70214     0.8174                      1414900300863 
    196.337    0.45208    4.38532    0.62786                      1414900300864 
    197.243    0.45417    4.92752    0.67106                      1414900300865 
    198.153    0.45626    7.06544    0.76515                      1414900300866 
    199.068    0.45837    6.57654     0.8663                      1414900300867 
    199.987    0.46049    11.9433    1.07333                      1414900300868 
     200.91    0.46261    18.9195    1.26764                      1414900300869 
    201.837    0.46475    15.4059    1.39787                      1414900300870 
    202.769    0.46689    8.29526    0.82996                      1414900300871 
    203.705    0.46905    4.89492    0.65059                      1414900300872 
    204.645    0.47121    7.41413     0.8793                      1414900300873 
     205.59    0.47339    8.66944    0.94577                      1414900300874 
    206.539    0.47557      8.183    0.78998                      1414900300875 
    207.492    0.47777    10.8614    0.95006                      1414900300876 
     208.45    0.47997    14.4396     1.2843                      1414900300877 
    209.412    0.48219      17.72    1.29418                      1414900300878 
    210.378    0.48441    27.0986    1.67857                      1414900300879 
    211.349    0.48665    10.1328    0.88132                      1414900300880 
    212.325     0.4889    9.05463    0.86925                      1414900300881 
    213.305    0.49115    4.21626    0.64569                      1414900300882 
     214.29    0.49342    9.19433     0.9363                      1414900300883 
    215.279     0.4957    4.74075    0.88892                      1414900300884 
    216.272    0.49799    2.97657     0.5882                      1414900300885 
    217.271    0.50028    4.10007    0.60878                      1414900300886 
    218.274    0.50259    4.96907    0.73147                      1414900300887 
    219.281    0.50491     5.6107     0.7031                      1414900300888 
    220.293    0.50724     6.2797     0.7725                      1414900300889 
     221.31    0.50958    12.3389     1.0859                      1414900300890 
    222.332    0.51194    13.4476    1.23851                      1414900300891 
    223.358     0.5143    16.9774    1.20571                      1414900300892 
    224.389    0.51667    25.6301    1.45952                      1414900300893 
    225.425    0.51906     36.383    1.76911                      1414900300894 
    226.465    0.52145    25.8434    1.60918                      1414900300895 
     227.51    0.52386    15.7876    1.13364                      1414900300896 
     228.56    0.52628    7.41639    0.86586                      1414900300897 
    229.615    0.52871    9.81582    0.87228                      1414900300898 
    230.675    0.53115    14.9422    1.11824                      1414900300899 
     231.74     0.5336     22.027    1.28147                      1414900300900 
     232.81    0.53606    13.6376    1.21428                      1414900300901 
    233.884    0.53854    11.0594    1.05107                      1414900300902 
    234.964    0.54102    9.68704    1.08231                      1414900300903 
    236.048    0.54352    2.65137    0.53472                      1414900300904 
    237.138    0.54603    3.48878    0.53539                      1414900300905 
    238.233    0.54855    2.45814    0.52493                      1414900300906 
    239.332    0.55108     2.3305    0.58809                      1414900300907 
    240.437    0.55363    3.42881     0.7151                      1414900300908 
    241.547    0.55618    5.78075    0.80768                      1414900300909 
    242.662    0.55875    5.29546    0.93547                      1414900300910 
    243.782    0.56133    4.08802    0.71009                      1414900300911 
    244.907    0.56392    3.81887    0.63494                      1414900300912 
    246.037    0.56652     5.9578    0.72791                      1414900300913 
    247.173    0.56914    9.49819    0.96629                      1414900300914 
    248.314    0.57176    11.9022    0.91924                      1414900300915 
     249.46     0.5744    9.79982    0.92499                      1414900300916 
    250.612    0.57705    3.94751    0.75847                      1414900300917 
    251.768    0.57972      3.692    0.58299                      1414900300918 
     252.93    0.58239    3.89009    0.70089                      1414900300919 
    254.098    0.58508    6.92722    0.86824                      1414900300920 
    255.271    0.58778    6.69575     0.9349                      1414900300921 
    256.449     0.5905     6.5927     0.7593                      1414900300922 
    257.633    0.59322    4.89983    0.78099                      1414900300923 
    258.822    0.59596    4.12231    0.57637                      1414900300924 
    260.017    0.59871    7.35008    0.72954                      1414900300925 
    261.217    0.60147    15.8313    1.14077                      1414900300926 
    262.423    0.60425    19.7324     1.3654                      1414900300927 
    263.634    0.60704    10.0616    1.19524                      1414900300928 
    264.851    0.60984    5.89599    0.69217                      1414900300929 
    266.073    0.61266    5.23429    0.66527                      1414900300930 
    267.301    0.61548    5.41092    0.82161                      1414900300931 
    268.535    0.61832    7.01642    0.88464                      1414900300932 
    269.775    0.62118    7.75246    0.85651                      1414900300933 
     271.02    0.62405    9.85167    1.00084                      1414900300934 
    272.271    0.62693    17.2242     1.2732                      1414900300935 
    273.528    0.62982    25.7842    1.55141                      1414900300936 
     274.79    0.63273    10.8455    1.20069                      1414900300937 
    276.059    0.63565    4.97798    0.69301                      1414900300938 
    277.333    0.63858    5.59585     0.7505                      1414900300939 
    278.613    0.64153    8.07631    0.99768                      1414900300940 
    279.899    0.64449    3.67565    0.64074                      1414900300941 
    281.191    0.64747    3.49857    0.77483                      1414900300942 
    282.489    0.65045    3.98399    0.79446                      1414900300943 
    283.793    0.65346    2.12643    0.57874                      1414900300944 
    285.103    0.65647    1.85292    0.43218                      1414900300945 
    286.419     0.6595    1.51827    0.46945                      1414900300946 
    287.741    0.66255    3.49062    0.60684                      1414900300947 
    289.069     0.6656     4.9254    0.70999                      1414900300948 
    290.403    0.66868    7.72328    0.88448                      1414900300949 
    291.743    0.67176    4.54491    0.83089                      1414900300950 
     293.09    0.67486    3.72009    0.74105                      1414900300951 
    294.443    0.67798    3.33037    0.55859                      1414900300952 
    295.802    0.68111    3.25232    0.54279                      1414900300953 
    297.167    0.68425    6.26127    0.77709                      1414900300954 
    298.539    0.68741    10.5605     0.9798                      1414900300955 
    299.917    0.69058     12.075    1.08207                      1414900300956 
    301.301    0.69377    2.51453    0.51646                      1414900300957 
    302.692    0.69697    1.88126    0.42073                      1414900300958 
    304.089    0.70019    2.74304    0.55507                      1414900300959 
    305.493    0.70342    1.91929    0.53002                      1414900300960 
    306.903    0.70667     3.0775    0.62996                      1414900300961 
     308.32    0.70993    4.71344      0.659                      1414900300962 
    309.743    0.71321    10.2134    1.08151                      1414900300963 
    311.172     0.7165    3.93234    0.59887                      1414900300964 
    312.609    0.71981    5.13236    0.64028                      1414900300965 
    314.052    0.72313    9.62678    0.88352                      1414900300966 
    315.501    0.72647    6.84246    0.78089                      1414900300967 
    316.958    0.72982    8.17169    0.98387                      1414900300968 
    318.421    0.73319    4.46843     0.7754                      1414900300969 
     319.89    0.73657    5.65966    0.72108                      1414900300970 
    321.367    0.73997    7.43643    0.86468                      1414900300971 
     322.85    0.74339    9.48654    0.91442                      1414900300972 
     324.34    0.74682    12.7962    1.10189                      1414900300973 
    325.838    0.75027    14.0853    1.35921                      1414900300974 
    327.342    0.75373    11.6823    1.30595                      1414900300975 
    328.853    0.75721     7.5221    1.02926                      1414900300976 
     330.37    0.76071    4.18427    0.84207                      1414900300977 
    331.895    0.76422    5.79462    0.90508                      1414900300978 
    333.427    0.76774     10.469    1.16506                      1414900300979 
    334.966    0.77129    9.11091    1.28724                      1414900300980 
    336.512    0.77485     4.5426    0.98051                      1414900300981 
    338.066    0.77842    4.71554    0.94529                      1414900300982 
    339.626    0.78202    4.28756    0.88751                      1414900300983 
    341.194    0.78563    8.39938    1.24549                      1414900300984 
    342.769    0.78925    10.2904    1.35547                      1414900300985 
    344.351     0.7929    10.5455    1.16498                      1414900300986 
     345.94    0.79656    7.33963    1.13146                      1414900300987 
    347.537    0.80023    4.41827    0.79102                      1414900300988 
    349.141    0.80393    5.71125     0.9749                      1414900300989 
    350.753    0.80764    4.65152    0.76042                      1414900300990 
    352.372    0.81137    4.82368    0.71815                      1414900300991 
    353.998    0.81511    5.20894    0.78553                      1414900300992 
    355.632    0.81887    7.41402    0.92178                      1414900300993 
    357.274    0.82265    6.95705    0.85154                      1414900300994 
    358.923    0.82645    3.39813    0.69626                      1414900300995 
     360.58    0.83026    2.47982    0.56783                      1414900300996 
    362.244     0.8341    3.56286    0.67045                      1414900300997 
    363.916    0.83795      4.813    0.79393                      1414900300998 
    365.596    0.84181    3.85951    0.62327                      1414900300999 
    367.283     0.8457    5.57208    0.80678                      1414900301000 
    368.979     0.8496    4.92087    0.70191                      1414900301001 
    370.682    0.85353    7.68017    0.79658                      1414900301002 
    372.393    0.85746    6.64513    0.80325                      1414900301003 
    374.112    0.86142    8.15792    0.91354                      1414900301004 
    375.838     0.8654     3.6907    0.62319                      1414900301005 
    377.573    0.86939    2.31178    0.45228                      1414900301006 
    379.316    0.87341    3.95843    0.60255                      1414900301007 
    381.067    0.87744    9.91165    0.92242                      1414900301008 
    382.826    0.88149    10.0223    1.00194                      1414900301009 
    384.593    0.88556    5.68442    0.73689                      1414900301010 
    386.368    0.88964    5.69039    0.74621                      1414900301011 
    388.151    0.89375     7.1942    0.76682                      1414900301012 
    389.943    0.89788    6.47686    0.85075                      1414900301013 
    391.743    0.90202     1.8463    0.44149                      1414900301014 
    393.551    0.90618    2.77338     0.5172                      1414900301015 
    395.368    0.91037    2.19439    0.53333                      1414900301016 
    397.193    0.91457    3.43182    0.54652                      1414900301017 
    399.026    0.91879    4.44258     0.7335                      1414900301018 
    400.868    0.92303    3.37292    0.57201                      1414900301019 
    402.718    0.92729    2.88956    0.50349                      1414900301020 
    404.577    0.93157    3.52135     0.5819                      1414900301021 
    406.444    0.93587    3.93302    0.59561                      1414900301022 
     408.32    0.94019    3.18135    0.63025                      1414900301023 
    410.205    0.94453    2.72556    0.56848                      1414900301024 
    412.099    0.94889    2.72334      0.537                      1414900301025 
    414.001    0.95327    2.75145    0.48099                      1414900301026 
    415.912    0.95767    4.96025    0.64007                      1414900301027 
    417.831    0.96209    5.29233    0.70017                      1414900301028 
     419.76    0.96653    7.22722    0.81612                      1414900301029 
    421.698    0.97099     5.6297    0.79367                      1414900301030 
    423.644    0.97548     2.3717    0.50569                      1414900301031 
      425.6    0.97998     5.8879    0.73616                      1414900301032 
    427.564     0.9845    5.72483    0.77399                      1414900301033 
    429.538    0.98905    5.69628    0.72817                      1414900301034 
     431.52    0.99361     4.2889    0.67252                      1414900301035 
    433.512     0.9982    3.76988    0.66421                      1414900301036 
    435.513     1.0028    5.66112    0.80533                      1414900301037 
    437.523    1.00743    5.32889    0.82001                      1414900301038 
    439.543    1.01208    3.63954    0.58096                      1414900301039 
    441.572    1.01675    5.97689    0.77252                      1414900301040 
     443.61    1.02145    5.87719    0.89317                      1414900301041 
    445.657    1.02616    3.33335     0.6935                      1414900301042 
    447.714     1.0309    2.83325    0.45934                      1414900301043 
    449.781    1.03566    4.41593    0.56725                      1414900301044 
    451.857    1.04044    6.73099    0.83063                      1414900301045 
    453.943    1.04524    4.65916    0.62731                      1414900301046 
    456.038    1.05006      4.754    0.65021                      1414900301047 
    458.143    1.05491    3.22948    0.52914                      1414900301048 
    460.258    1.05978    4.26355    0.59092                      1414900301049 
    462.382    1.06467    7.55593    0.76225                      1414900301050 
    464.517    1.06959    7.08335    0.81371                      1414900301051 
    466.661    1.07452    4.00008    0.76753                      1414900301052 
    468.815    1.07948    3.00409    0.56056                      1414900301053 
    470.979    1.08447    4.40271    0.64805                      1414900301054 
    473.153    1.08947    3.70687    0.63398                      1414900301055 
    475.336     1.0945    5.83242    0.78417                      1414900301056 
    477.531    1.09955    4.81364    0.57676                      1414900301057 
    479.735    1.10463    5.19154    0.62245                      1414900301058 
    481.949    1.10973    5.79853    0.74018                      1414900301059 
    484.174    1.11485    6.09297    0.85298                      1414900301060 
    486.408    1.11999    3.91146    0.67677                      1414900301061 
    488.654    1.12516    2.59913    0.53329                      1414900301062 
    490.909    1.13036    2.64328    0.56254                      1414900301063 
    493.175    1.13558    5.08623    0.77753                      1414900301064 
    495.452    1.14082    4.91354    0.64437                      1414900301065 
    497.738    1.14608    5.99639    0.73361                      1414900301066 
    500.036    1.15137    2.61329    0.57851                      1414900301067 
    507.024    5.83708    3.55298    0.31219                      1414900301068 
    518.834    5.97304    4.99961    0.34793                      1414900301069 
     530.92    6.11217    5.00055    0.31007                      1414900301070 
    543.286    6.25454    5.28221    0.33375                      1414900301071 
    555.941    6.40023    2.72231    0.24951                      1414900301072 
    568.891    6.54931    4.05571     0.2843                      1414900301073 
    582.142    6.70186    5.12371    0.34249                      1414900301074 
    595.702    6.85797    4.88484    0.34209                      1414900301075 
    609.577    7.01771    3.05826    0.27941                      1414900301076 
    623.776    7.18117    4.94271    0.30612                      1414900301077 
    638.306    7.34844    8.20161    0.41197                      1414900301078 
    653.174    7.51961    3.73843    0.25968                      1414900301079 
    668.388    7.69476    3.92845    0.27976                      1414900301080 
    683.957      7.874    4.12675    0.31156                      1414900301081 
    699.888    8.05741    3.03716    0.26233                      1414900301082 
    716.191    8.24509    3.86686    0.27441                      1414900301083 
    732.873    8.43714    7.34986    0.37692                      1414900301084 
    749.944    8.63367    5.19598    0.31439                      1414900301085 
    767.412    8.83477    3.72374    0.29114                      1414900301086 
    785.288    9.04056    4.24022    0.29458                      1414900301087 
    803.579    9.25114    4.45654    0.30217                      1414900301088 
    822.297    9.46663    3.31429    0.26158                      1414900301089 
    841.451    9.68713    3.23729    0.23817                      1414900301090 
    861.051    9.91278    4.07577    0.27168                      1414900301091 
    881.107    10.1437    3.35424    0.25283                      1414900301092 
    901.631      10.38    4.70958    0.29663                      1414900301093 
    922.633    10.6217    5.37209    0.31824                      1414900301094 
    944.123    10.8691    4.22382     0.2866                      1414900301095 
    966.115    11.1223     4.2607    0.28898                      1414900301096 
    988.619    11.3814    3.39142    0.24653                      1414900301097 
    1061.01    61.0092    4.42334    0.14326                      1414900301098 
    1190.47    68.4535    3.38042    0.12837                      1414900301099 
    1335.73    76.8061    2.59591    0.11417                      1414900301100 
    1498.72    86.1778    2.37602    0.10512                      1414900301101 
    1681.59    96.6931    2.25792    0.10632                      1414900301102 
    1886.77    108.491    2.68088    0.11192                      1414900301103 
    2116.99    121.729    2.44318    0.10807                      1414900301104 
     2375.3    136.583    1.72983    0.09737                      1414900301105 
    2665.13    153.248    1.88963    0.10137                      1414900301106 
    2990.33    171.947    1.84828    0.09734                      1414900301107 
    3355.21    192.928    1.97268    0.10179                      1414900301108 
     3764.6    216.469    1.85447    0.09881                      1414900301109 
    4223.95    242.882    1.55634    0.09170                      1414900301110 
    4739.35    272.518    1.61451    0.09272                      1414900301111 
    5317.64     305.77    1.16780    0.08327                      1414900301112 
    5966.49     343.08    1.56366    0.10134                      1414900301113 
    6694.52    384.942    1.32518    0.08704                      1414900301114 
    7511.37    431.912    1.14676    0.08215                      1414900301115 
     8427.9    484.614    1.37565    0.08967                      1414900301116 
    9456.25    543.745    1.05492    0.07839                      1414900301117 
    11294.6    1294.63    1.10672    0.05891                      1414900301118 
    14219.1    1629.84    1.04448    0.05878                      1414900301119 
    17900.8    2051.85    0.87814    0.05439                      1414900301120 
    22535.7    2583.12    0.86643    0.05334                      1414900301121 
    28370.8    3251.96    0.76678    0.04665                      1414900301122 
    35716.7    4093.97    0.64162    0.10492                      1414900301123 
    44964.7    5154.00    0.69416    0.05785                      1414900301124 
    56607.2    6488.51    0.53867    0.04759                      1414900301125 
    71264.3    8168.54    0.57786    0.04238                      1414900301126 
    89716.4    10283.6    0.39891    0.08201                      1414900301127 
   129245.0    29244.7    0.37764    0.03315                      1414900301128 
   204839.0    46349.7    0.32912    0.03262                      1414900301129 
   324648.0    73459.3    0.20986    0.02680                      1414900301130 
   514532.0   116425.0    0.16447    0.03092                      1414900301131 
   815479.0   184521.0    0.12408    0.02662                      1414900301132 
ENDDATA           1115          0                                 1414900301133 
ENDSUBENT         1132          0                                 1414900399999 
NOSUBENT      14149004   20130622                             13901414900400001 
NOSUBENT      14149005   20130622                             13901414900500001 
NOSUBENT      14149006   20130622                             13901414900600001 
ENDENTRY             6          0                                 1414999999999 
