ENTRY            14149   20241001                             151514149000    1 
SUBENT        14149001   20241001                             151514149001    1 
BIB                 11         61                                 14149001    2 
TITLE      New precision measurements of the 235U(n,g) cross      14149001    3 
            section                                               14149001    4 
AUTHOR     (M.Jandel, T.A.Bredeweg, E.M.Bond, M.B.Chadwick,       14149001    5 
            A.Couture, J.M.O'Donnell, M.Fowler, R.C.Haight,       14149001    6 
            T.Kawano, R.Reifarth, R.S.Rundberg, J.L.Ullmann,      14149001    7 
            D.J.Vieira, J.M.Wouters, J.B.Wilhelmy, C.Y.Wu,        14149001    8 
            J.A.Becker)                                           14149001    9 
INSTITUTE  (1USALAS,1USALRL)                                      14149001   10 
REFERENCE  (J,PRL,109,202506,2012) Final (n,g) and alpha          14149001   11 
           (J,NIM/B,261,986,2007)  Prelim. (n,g) and (n,f) in figs14149001   12 
           (C,2007NICE,1,607,2007) Prelim. (n,g) and (n,f) in figs14149001   13 
FACILITY   (LINAC,1USALAS) Lujan Neutron Scattering Center of     14149001   14 
            LANSCE                                                14149001   15 
SAMPLE     (92-U-235,ENR=0.94)                                    14149001   16 
           Self-supporting sample (26 mg/cm2 thick) for           14149001   17 
            thick target experiment                               14149001   18 
           (92-U-235,ENR=0.999)                                   14149001   19 
           Sample installed inside PPAC (130 ug/cm2 thick) for    14149001   20 
            thin target measurements                              14149001   21 
           (82-PB-208,ENR=0.99)                                   14149001   22 
           Enriched 208Pb sample (~120 mg/cm2) for neutron        14149001   23 
            scattering background measurement                     14149001   24 
DETECTOR   (BAF2) 4pi highly segmented highly efficient gamma-ray 14149001   25 
            calorimeter DANCE (inner radius of 17 cm) which       14149001   26 
            consists of 160 BaF2 scintillation crystals (15 cm    14149001   27 
            long) having the same solid-angle coverage.           14149001   28 
           (PPAC) To detect fission fragments and tag the         14149001   29 
            gamma-rays from fission.                              14149001   30 
METHOD     (TOF) gamma flash from the spallation reaction and     14149001   31 
            gamma-ray by neutron interacting with sample were     14149001   32 
            used to calculate the time-of-flight                  14149001   33 
INC-SOURCE (SPALL) Spallation on a natural W target by 800-MeV    14149001   34 
            protons beams (~ 1-2 uA, pulse width of ~125 nsec     14149001   35 
            FWHM with a repetition rate of 20 Hz).                14149001   36 
ANALYSIS   Capture cross section was obtained by combination      14149001   37 
            of three independent experiments/measurements         14149001   38 
             1. Measurement with a thick sample to obtain a good  14149001   39 
                statistics of capture gamma-rays                  14149001   40 
             2. Measurement with a thin sample inside a 4pi       14149001   41 
                PPAC counter to measure gamma-rays associated     14149001   42 
                with fission                                      14149001   43 
             3. Measurements of the neutron scattering background 14149001   44 
                using a 208Pb sample                              14149001   45 
           Overall fission gamma-ray spectrum obtained in         14149001   46 
            coincidence with PPAC was normalized to thick target  14149001   47 
            data in high gamma multiplicity region M>6, where     14149001   48 
            only gamma-rays associated with fission are emitted.  14149001   49 
           Thick target events with gamma multiplicity between 3  14149001   50 
            and 5 and the total gamma energy between 5.7 and      14149001   51 
            6.7 MeV were selected as capture events, and the      14149001   52 
            remaining portion fission gamma-rays was subtracted   14149001   53 
            by using the PPAC data normalized to the thick target 14149001   54 
            data.                                                 14149001   55 
HISTORY    (20080211C) Compiled by S.H.                           14149001   56 
           (20100315A) 2007NICE added. Major revisions in 002-003.14149001   57 
           (20120425A) S.H. 004-006 added for data presented at   14149001   58 
            2007NICE without numerical data                       14149001   59 
           (20130408A) S.H. Major revision in 003. 004-006 deleted14149001   60 
           (20170329A) On. Major revisions in 002-003. 007 added. 14149001   61 
           (20240930A) OS. REFERENCE date corrected, MONITOR moved14149001   62 
            to subs. 3,7                                          14149001   63 
ENDBIB              61          0                                 14149001   64 
NOCOMMON             0          0                                 14149001   65 
ENDSUBENT           64          0                                 1414900199999 
SUBENT        14149002   20170329                             142614149  2    1 
BIB                  4          6                                 14149  2    2 
REACTION   (92-U-235(N,F),,SIG)                                   14149  2    3 
ERR-ANALYS (ERR-S) Statistical uncertainty                        14149  2    4 
STATUS     (CURVE) Fig.5 of Nucl.Instrum.Meth.B261(2007)986       14149  2    5 
           (PRELM)                                                14149  2    6 
HISTORY    (20100315A) S.H. EN: KEV -> EV                         14149  2    7 
           (20170329A) On. Data format changed. DATA-ERR->ERR-S.  14149  2    8 
ENDBIB               6          0                                 14149  2    9 
NOCOMMON             0          0                                 14149  2   10 
DATA                 3        187                                 14149  2   11 
EN         DATA       ERR-S                                       14149  2   12 
EV         B          B                                           14149  2   13 
  6.028      2.928E+01  3.919E+00                                 14149  2   14 
  6.080      3.721E+01  5.490E+00                                 14149  2   15 
  6.131      4.803E+01  6.428E+00                                 14149  2   16 
  6.196      5.635E+01  7.541E+00                                 14149  2   17 
  6.273      6.505E+01  8.706E+00                                 14149  2   18 
  6.325      8.671E+01  7.920E+00                                 14149  2   19 
  6.389      1.212E+02  1.282E+01                                 14149  2   20 
  6.441      6.402E+01  8.568E+00                                 14149  2   21 
  6.506      2.128E+01  5.058E+00                                 14149  2   22 
  6.557      8.987E+00  2.661E+00                                 14149  2   23 
  6.622      6.851E+00  2.469E+00                                 14149  2   24 
  6.687      6.029E+00  2.234E+00                                 14149  2   25 
  6.738      7.909E+00  2.162E+00                                 14149  2   26 
  6.803      9.890E+00  2.817E+00                                 14149  2   27 
  6.854      1.237E+01  2.852E+00                                 14149  2   28 
  6.906      1.996E+01  4.251E+00                                 14149  2   29 
  6.983      3.841E+01  4.605E+00                                 14149  2   30 
  7.034      6.934E+01  7.332E+00                                 14149  2   31 
  7.150      6.934E+01  8.314E+00                                 14149  2   32 
  7.163      3.327E+01  7.500E+00                                 14149  2   33 
  7.228      1.361E+01  4.182E+00                                 14149  2   34 
  7.280      6.742E+00  2.697E+00                                 14149  2   35 
  7.332      3.918E+00  1.782E+00                                 14149  2   36 
  7.383      4.045E+00  1.909E+00                                 14149  2   37 
  7.448      3.981E+00  1.740E+00                                 14149  2   38 
  7.499      4.312E+00  2.107E+00                                 14149  2   39 
  7.538      3.676E+00  1.855E+00                                 14149  2   40 
  7.577      3.340E+00  1.737E+00                                 14149  2   41 
  7.641      2.389E+00  1.542E+00                                 14149  2   42 
  7.693      1.972E+00  1.395E+00                                 14149  2   43 
  7.758      2.758E+00  1.665E+00                                 14149  2   44 
  7.835      2.546E+00  1.505E+00                                 14149  2   45 
  7.874      3.560E+00  1.852E+00                                 14149  2   46 
  7.951      3.856E+00  1.686E+00                                 14149  2   47 
  8.015      4.244E+00  1.930E+00                                 14149  2   48 
  8.067      6.126E+00  2.451E+00                                 14149  2   49 
  8.118      8.987E+00  2.661E+00                                 14149  2   50 
  8.183      1.451E+01  3.623E+00                                 14149  2   51 
  8.247      1.675E+01  4.183E+00                                 14149  2   52 
  8.299      2.061E+01  4.754E+00                                 14149  2   53 
  8.363      3.327E+01  6.236E+00                                 14149  2   54 
  8.428      4.727E+01  4.318E+00                                 14149  2   55 
  8.479      7.046E+01  7.449E+00                                 14149  2   56 
  8.544      1.156E+02  1.222E+01                                 14149  2   57 
  8.595      1.807E+02  1.911E+01                                 14149  2   58 
  8.672      3.368E+02  3.076E+01                                 14149  2   59 
  8.724      5.351E+02  6.415E+01                                 14149  2   60 
  8.801      6.177E+02  7.406E+01                                 14149  2   61 
  8.853      4.279E+02  4.524E+01                                 14149  2   62 
  8.905      2.409E+02  2.200E+01                                 14149  2   63 
  8.956      1.565E+02  2.309E+01                                 14149  2   64 
  9.034      1.050E+02  1.259E+01                                 14149  2   65 
  9.073      8.952E+01  1.073E+01                                 14149  2   66 
  9.137      7.275E+01  6.644E+00                                 14149  2   67 
  9.215      8.671E+01  1.279E+01                                 14149  2   68 
  9.266      1.050E+02  1.405E+01                                 14149  2   69 
  9.305      8.006E+01  1.071E+01                                 14149  2   70 
  9.382      6.201E+01  8.299E+00                                 14149  2   71 
  9.434      4.579E+01  8.581E+00                                 14149  2   72 
  9.512      3.721E+01  6.486E+00                                 14149  2   73 
  9.589      3.072E+01  4.533E+00                                 14149  2   74 
  9.679      2.619E+01  4.217E+00                                 14149  2   75 
  9.770      3.072E+01  6.153E+00                                 14149  2   76 
  9.795      2.232E+01  4.754E+00                                 14149  2   77 
  9.925      1.934E+01  3.873E+00                                 14149  2   78 
  9.976      1.785E+01  3.112E+00                                 14149  2   79 
  9.989      1.297E+01  3.546E+00                                 14149  2   80 
 10.050      2.094E+01  3.925E+00                                 14149  2   81 
 10.110      2.791E+01  4.496E+00                                 14149  2   82 
 10.170      3.604E+01  6.283E+00                                 14149  2   83 
 10.230      3.023E+01  5.271E+00                                 14149  2   84 
 10.270      2.418E+01  5.747E+00                                 14149  2   85 
 10.360      1.996E+01  4.745E+00                                 14149  2   86 
 10.410      1.757E+01  3.741E+00                                 14149  2   87 
 10.450      1.088E+01  3.100E+00                                 14149  2   88 
 10.530      1.318E+01  3.133E+00                                 14149  2   89 
 10.600      1.071E+01  2.281E+00                                 14149  2   90 
 10.670      1.257E+01  3.434E+00                                 14149  2   91 
 10.710      1.071E+01  3.172E+00                                 14149  2   92 
 10.760      1.383E+01  3.463E+00                                 14149  2   93 
 10.810      1.142E+01  3.252E+00                                 14149  2   94 
 10.910      1.297E+01  2.992E+00                                 14149  2   95 
 10.980      1.198E+01  1.632E+00                                 14149  2   96 
 11.000      1.054E+01  3.003E+00                                 14149  2   97 
 11.070      1.361E+01  3.399E+00                                 14149  2   98 
 11.120      1.124E+01  3.201E+00                                 14149  2   99 
 11.190      1.428E+01  3.735E+00                                 14149  2  100 
 11.250      1.257E+01  2.987E+00                                 14149  2  101 
 11.270      1.142E+01  2.431E+00                                 14149  2  102 
 11.320      1.474E+01  2.952E+00                                 14149  2  103 
 11.400      1.648E+01  3.089E+00                                 14149  2  104 
 11.430      1.873E+01  3.265E+00                                 14149  2  105 
 11.470      2.380E+01  5.067E+00                                 14149  2  106 
 11.560      3.903E+01  6.286E+00                                 14149  2  107 
 11.610      5.203E+01  9.070E+00                                 14149  2  108 
 11.670      6.402E+01  1.116E+01                                 14149  2  109 
 11.730      4.803E+01  8.374E+00                                 14149  2  110 
 11.800      2.619E+01  5.576E+00                                 14149  2  111 
 11.850      1.934E+01  4.596E+00                                 14149  2  112 
 11.920      2.268E+01  3.036E+00                                 14149  2  113 
 11.980      2.577E+01  4.151E+00                                 14149  2  114 
 12.030      3.327E+01  5.358E+00                                 14149  2  115 
 12.090      4.365E+01  6.440E+00                                 14149  2  116 
 12.140      5.818E+01  6.975E+00                                 14149  2  117 
 12.210      8.810E+01  1.179E+01                                 14149  2  118 
 12.260      1.400E+02  2.254E+01                                 14149  2  119 
 12.320      2.447E+02  3.611E+01                                 14149  2  120 
 12.390      3.368E+02  5.871E+01                                 14149  2  121 
 12.450      2.693E+02  5.048E+01                                 14149  2  122 
 12.500      1.232E+02  2.309E+01                                 14149  2  123 
 12.570      4.959E+01  8.646E+00                                 14149  2  124 
 12.630      2.457E+01  4.716E+00                                 14149  2  125 
 12.690      1.873E+01  3.510E+00                                 14149  2  126 
 12.750      2.661E+01  4.285E+00                                 14149  2  127 
 12.850      2.536E+01  4.085E+00                                 14149  2  128 
 12.870      3.547E+01  6.183E+00                                 14149  2  129 
 12.970      2.704E+01  5.067E+00                                 14149  2  130 
 13.000      2.061E+01  4.389E+00                                 14149  2  131 
 13.070      1.702E+01  3.624E+00                                 14149  2  132 
 13.190      1.934E+01  3.371E+00                                 14149  2  133 
 13.240      2.791E+01  4.119E+00                                 14149  2  134 
 13.370      2.882E+01  5.401E+00                                 14149  2  135 
 13.420      2.305E+01  4.616E+00                                 14149  2  136 
 13.490      3.023E+01  3.625E+00                                 14149  2  137 
 13.590      3.721E+01  4.461E+00                                 14149  2  138 
 13.650      4.506E+01  6.031E+00                                 14149  2  139 
 13.700      5.371E+01  6.440E+00                                 14149  2  140 
 13.780      6.301E+01  5.755E+00                                 14149  2  141 
 13.850      7.046E+01  6.436E+00                                 14149  2  142 
 13.950      8.006E+01  8.464E+00                                 14149  2  143 
 14.010      9.243E+01  9.772E+00                                 14149  2  144 
 14.070      7.275E+01  8.721E+00                                 14149  2  145 
 14.130      6.402E+01  6.769E+00                                 14149  2  146 
 14.190      5.725E+01  6.864E+00                                 14149  2  147 
 14.250      4.803E+01  7.087E+00                                 14149  2  148 
 14.310      3.781E+01  5.578E+00                                 14149  2  149 
 14.380      4.228E+01  7.923E+00                                 14149  2  150 
 14.430      3.327E+01  6.236E+00                                 14149  2  151 
 14.490      3.966E+01  7.433E+00                                 14149  2  152 
 14.560      3.381E+01  6.771E+00                                 14149  2  153 
 14.620      2.232E+01  5.032E+00                                 14149  2  154 
 14.670      1.198E+01  3.134E+00                                 14149  2  155 
 14.790      1.038E+01  3.414E+00                                 14149  2  156 
 14.840      7.187E+00  2.735E+00                                 14149  2  157 
 14.920      1.124E+01  3.328E+00                                 14149  2  158 
 14.980      9.733E+00  2.883E+00                                 14149  2  159 
 15.020      1.142E+01  3.252E+00                                 14149  2  160 
 15.100      1.597E+01  3.987E+00                                 14149  2  161 
 15.150      1.217E+01  3.327E+00                                 14149  2  162 
 15.200      2.162E+01  4.604E+00                                 14149  2  163 
 15.270      3.121E+01  5.442E+00                                 14149  2  164 
 15.330      4.296E+01  5.150E+00                                 14149  2  165 
 15.390      6.006E+01  1.203E+01                                 14149  2  166 
 15.430      4.881E+01  1.100E+01                                 14149  2  167 
 15.520      3.841E+01  7.693E+00                                 14149  2  168 
 15.590      1.814E+01  4.311E+00                                 14149  2  169 
 15.640      8.431E+00  2.304E+00                                 14149  2  170 
 15.690      7.661E+00  2.839E+00                                 14149  2  171 
 15.760      9.890E+00  2.929E+00                                 14149  2  172 
 15.810      1.106E+01  2.628E+00                                 14149  2  173 
 15.870      1.277E+01  3.189E+00                                 14149  2  174 
 15.920      2.061E+01  4.646E+00                                 14149  2  175 
 15.990      3.662E+01  6.862E+00                                 14149  2  176 
 16.050      4.881E+01  6.532E+00                                 14149  2  177 
 16.120      6.505E+01  9.598E+00                                 14149  2  178 
 16.180      4.506E+01  7.856E+00                                 14149  2  179 
 16.230      2.704E+01  6.753E+00                                 14149  2  180 
 16.300      1.405E+01  4.161E+00                                 14149  2  181 
 16.360      9.733E+00  3.098E+00                                 14149  2  182 
 16.410      1.339E+01  3.815E+00                                 14149  2  183 
 16.470      1.814E+01  3.400E+00                                 14149  2  184 
 16.530      3.327E+01  3.989E+00                                 14149  2  185 
 16.580      4.727E+01  6.975E+00                                 14149  2  186 
 16.660      6.825E+01  9.133E+00                                 14149  2  187 
 16.720      6.201E+01  8.299E+00                                 14149  2  188 
 16.770      5.120E+01  6.852E+00                                 14149  2  189 
 16.830      3.721E+01  8.387E+00                                 14149  2  190 
 16.890      2.094E+01  4.721E+00                                 14149  2  191 
 16.940      1.405E+01  4.161E+00                                 14149  2  192 
 17.010      9.890E+00  2.929E+00                                 14149  2  193 
 17.070      8.431E+00  2.864E+00                                 14149  2  194 
 17.140      9.890E+00  3.148E+00                                 14149  2  195 
 17.210      8.297E+00  2.730E+00                                 14149  2  196 
 17.320      8.566E+00  2.726E+00                                 14149  2  197 
 17.390      8.166E+00  2.774E+00                                 14149  2  198 
 17.430      1.071E+01  3.292E+00                                 14149  2  199 
 17.500      4.452E+00  2.138E+00                                 14149  2  200 
ENDDATA            189          0                                 14149  2  201 
ENDSUBENT          200          0                                 14149  299999 
SUBENT        14149003   20241001                             151514149003    1 
BIB                  5         16                                 14149003    2 
REACTION   (92-U-235(N,G)92-U-236,,SIG)                           14149003    3 
MONITOR    (92-U-235(N,G)92-U-236,,INT)                           14149003    4 
            Overall normalization constant was obtained by        14149003    5 
            cross section integral from 45 to 100 eV in           14149003    6 
            ENDF/B-VII.1 (837.8 eV*b)                             14149003    7 
ERR-ANALYS (DATA-ERR) Total uncertainty which could not be        14149003    8 
            separated to statistical and systematic uncertainties 14149003    9 
            because of data correlations.                         14149003   10 
           Uncertainties will be updated after publication of a   14149003   11 
            separate paper devoted to uncertainties.              14149003   12 
STATUS     (TABLE) Data sent by author (M.J.) corresponding to    14149003   13 
            Fig.3+4 of Phys.Rev.Lett.109(2012)202506              14149003   14 
HISTORY    (20100315A) S.H. EN: KEV -> EV                         14149003   15 
           (20130408A) S.H. Final data replaced digitized data.   14149003   16 
           (20170329A) On. Data above 500 eV moved to 007.        14149003   17 
           (20240930A) MONITOR keyword moved from sub.1           14149003   18 
ENDBIB              16          0                                 14149003   19 
COMMON               3          3                                 14149003   20 
EN-NRM-MIN EN-NRM-MAX MONIT                                       14149003   21 
EV         EV         B*EV                                        14149003   22 
 45.0       100.0      837.8                                      14149003   23 
ENDCOMMON            3          0                                 14149003   24 
DATA                 4       1047                                 14149003   25 
EN         EN-RSL     DATA       DATA-ERR                         14149003   26 
EV         EV         B          B                                14149003   27 
 4.02718    0.00927      4.34404  1.19815                         14149003   28 
 4.04577    0.00932      3.70273  1.08498                         14149003   29 
 4.06444    0.00936      3.06635  0.90688                         14149003   30 
 4.0832     0.0094       3.91284  1.04457                         14149003   31 
 4.10205    0.00945      4.06534  1.26251                         14149003   32 
 4.12099    0.00949      2.20138  0.8085                          14149003   33 
 4.14001    0.00953      5.06291  1.49761                         14149003   34 
 4.15912    0.00958      4.31554  1.18224                         14149003   35 
 4.17831    0.00962      1.83991  0.73411                         14149003   36 
 4.1976     0.00967      5.81204  1.51136                         14149003   37 
 4.21698    0.00971      2.41151  0.88567                         14149003   38 
 4.23644    0.00975      2.42869  1.00252                         14149003   39 
 4.256      0.0098       2.56948  0.85994                         14149003   40 
 4.27564    0.00985      4.56329  1.56516                         14149003   41 
 4.29538    0.00989      3.52278  1.18848                         14149003   42 
 4.3152     0.00994      3.78532  1.07089                         14149003   43 
 4.33512    0.00998      3.64694  1.06678                         14149003   44 
 4.35513    0.01003      2.8864   0.89175                         14149003   45 
 4.37523    0.01007      3.63557  1.10213                         14149003   46 
 4.39543    0.01012      3.26699  0.99847                         14149003   47 
 4.41572    0.01017      4.48894  1.29954                         14149003   48 
 4.4361     0.01021      5.04819  1.29572                         14149003   49 
 4.45657    0.01026      3.85347  1.18054                         14149003   50 
 4.47714    0.01031      4.04251  1.25311                         14149003   51 
 4.49781    0.01036      6.46769  1.61984                         14149003   52 
 4.51857    0.0104       5.22668  1.39398                         14149003   53 
 4.53943    0.01045      4.8595   1.22783                         14149003   54 
 4.56038    0.0105       4.94748  1.23415                         14149003   55 
 4.58143    0.01055      9.01765  2.07798                         14149003   56 
 4.60258    0.0106       8.13521  1.76103                         14149003   57 
 4.62382    0.01065      9.50537  2.01556                         14149003   58 
 4.64517    0.0107       9.50914  1.71405                         14149003   59 
 4.66661    0.01075     14.508    2.56577                         14149003   60 
 4.68815    0.01079     15.5825   2.42903                         14149003   61 
 4.70979    0.01084     19.4608   3.07552                         14149003   62 
 4.73153    0.01089     28.3492   4.11563                         14149003   63 
 4.75336    0.01095     31.4724   3.95935                         14149003   64 
 4.77531    0.011       59.5253   6.80178                         14149003   65 
 4.79735    0.01105     86.3792   8.37083                         14149003   66 
 4.81949    0.0111     104.054    8.08618                         14149003   67 
 4.84174    0.01115    132.628    9.62723                         14149003   68 
 4.86408    0.0112     128.565    8.99217                         14149003   69 
 4.88654    0.01125    110.189    8.16216                         14149003   70 
 4.90909    0.0113      77.5298   7.04078                         14149003   71 
 4.93175    0.01136     43.8535   4.83342                         14149003   72 
 4.95452    0.01141     24.6566   3.38218                         14149003   73 
 4.97738    0.01146     16.6386   2.5636                          14149003   74 
 5.00036    0.01151     11.9989   2.09261                         14149003   75 
 5.02344    0.01157      9.72062  1.89113                         14149003   76 
 5.04663    0.01162      7.55447  1.44678                         14149003   77 
 5.06992    0.01167      7.05342  1.44115                         14149003   78 
 5.09332    0.01173      7.70469  1.54997                         14149003   79 
 5.11683    0.01178      8.1738   1.6578                          14149003   80 
 5.14045    0.01184      9.48584  1.72589                         14149003   81 
 5.16418    0.01189     12.7722   2.36071                         14149003   82 
 5.18801    0.01195      7.30528  1.47361                         14149003   83 
 5.21196    0.012        9.95546  1.83027                         14149003   84 
 5.23602    0.01206      7.86053  1.49636                         14149003   85 
 5.26019    0.01211      5.12462  1.36737                         14149003   86 
 5.28447    0.01217      3.9498   1.13739                         14149003   87 
 5.30886    0.01222      3.03418  1.05672                         14149003   88 
 5.33336    0.01228      4.32656  1.16412                         14149003   89 
 5.35798    0.01234      4.96529  1.25462                         14149003   90 
 5.38271    0.01239      3.28028  1.1593                          14149003   91 
 5.40756    0.01245      3.46858  1.16393                         14149003   92 
 5.43252    0.01251      4.05408  1.24897                         14149003   93 
 5.45759    0.01257      5.14898  1.34325                         14149003   94 
 5.48278    0.01262      3.90989  1.19161                         14149003   95 
 5.50809    0.01268      2.84649  1.17006                         14149003   96 
 5.53352    0.01274      2.89216  1.12378                         14149003   97 
 5.55906    0.0128       7.23887  1.69516                         14149003   98 
 5.58472    0.01286      4.87351  1.37265                         14149003   99 
 5.61049    0.01292      4.75068  1.30948                         14149003  100 
 5.63639    0.01298      7.12892  1.70101                         14149003  101 
 5.66241    0.01304      5.00992  1.37263                         14149003  102 
 5.68854    0.0131       3.71157  1.12386                         14149003  103 
 5.7148     0.01316      4.69652  1.28213                         14149003  104 
 5.74118    0.01322      4.54707  1.24627                         14149003  105 
 5.76768    0.01328      4.36485  1.22551                         14149003  106 
 5.7943     0.01334      5.13369  1.33459                         14149003  107 
 5.82105    0.0134       6.10205  1.53459                         14149003  108 
 5.84792    0.01347      7.07243  1.47938                         14149003  109 
 5.87491    0.01353      3.83528  1.12418                         14149003  110 
 5.90203    0.01359      8.98393  1.69752                         14149003  111 
 5.92927    0.01365      8.97113  1.6469                          14149003  112 
 5.95664    0.01372      7.38296  1.44234                         14149003  113 
 5.98413    0.01378     10.5016   1.84623                         14149003  114 
 6.01175    0.01384     10.0757   1.77962                         14149003  115 
 6.0395     0.01391     14.1989   2.06012                         14149003  116 
 6.06738    0.01397     14.7522   2.10831                         14149003  117 
 6.09539    0.01404     18.8769   2.35506                         14149003  118 
 6.12352    0.0141      25.4557   2.82786                         14149003  119 
 6.15179    0.01417     30.7127   3.0073                          14149003  120 
 6.18018    0.01423     35.4248   3.17814                         14149003  121 
 6.20871    0.0143      45.1047   3.61777                         14149003  122 
 6.23736    0.01436     56.5881   3.90413                         14149003  123 
 6.26616    0.01443     84.4761   5.26549                         14149003  124 
 6.29508    0.01449    116.907    6.44615                         14149003  125 
 6.32414    0.01456    204.093    9.76467                         14149003  126 
 6.35333    0.01463    285.032    11.6858                         14149003  127 
 6.38265    0.0147     365.456    13.35                           14149003  128 
 6.41211    0.01476    335.757    12.0461                         14149003  129 
 6.44171    0.01483    247.798    9.96733                         14149003  130 
 6.47144    0.0149     146.764    7.46619                         14149003  131 
 6.50131    0.01497     60.9976   4.32204                         14149003  132 
 6.53132    0.01504     30.5188   2.91299                         14149003  133 
 6.56147    0.01511     21.0693   2.4654                          14149003  134 
 6.59176    0.01518     18.0272   2.43699                         14149003  135 
 6.62218    0.01525     10.1959   1.52389                         14149003  136 
 6.65275    0.01532      9.48793  1.66214                         14149003  137 
 6.68346    0.01539      7.84222  1.39428                         14149003  138 
 6.71431    0.01546      5.91278  1.10211                         14149003  139 
 6.7453     0.01553      9.36313  1.70966                         14149003  140 
 6.77643    0.0156       6.58482  1.27361                         14149003  141 
 6.80771    0.01568      7.33836  1.25777                         14149003  142 
 6.83913    0.01575      7.63469  1.42456                         14149003  143 
 6.8707     0.01582     11.2262   1.65953                         14149003  144 
 6.90242    0.01589     17.2993   2.2199                          14149003  145 
 6.93428    0.01597     16.8863   2.06988                         14149003  146 
 6.96628    0.01604     22.8718   2.54261                         14149003  147 
 6.99844    0.01611     36.7853   3.13776                         14149003  148 
 7.03074    0.01619     57.3831   4.17597                         14149003  149 
 7.06319    0.01626     96.3492   5.63561                         14149003  150 
 7.0958     0.01634    109.228    6.09001                         14149003  151 
 7.12855    0.01641     88.3609   5.20502                         14149003  152 
 7.16145    0.01649     52.8693   4.02902                         14149003  153 
 7.19451    0.01657     35.6639   3.34225                         14149003  154 
 7.22772    0.01664     18.7554   2.52438                         14149003  155 
 7.26108    0.01672     11.8408   2.10126                         14149003  156 
 7.29459    0.0168      13.2768   2.41385                         14149003  157 
 7.32826    0.01687     11.9648   2.33932                         14149003  158 
 7.36209    0.01695      6.14593  1.33309                         14149003  159 
 7.39607    0.01703      6.2822   1.44127                         14149003  160 
 7.43021    0.01711      4.56386  1.23351                         14149003  161 
 7.46451    0.01719      4.16759  1.09521                         14149003  162 
 7.49896    0.01727      4.1541   1.22064                         14149003  163 
 7.53358    0.01735      5.51651  1.50268                         14149003  164 
 7.56835    0.01743      5.43716  1.40628                         14149003  165 
 7.60328    0.01751      3.52292  1.04266                         14149003  166 
 7.63838    0.01759      4.74633  1.24023                         14149003  167 
 7.67364    0.01767      2.71341  0.95085                         14149003  168 
 7.70906    0.01775      2.4731   0.95243                         14149003  169 
 7.74464    0.01783      3.85795  1.06623                         14149003  170 
 7.78039    0.01792      6.12806  1.50219                         14149003  171 
 7.8163     0.018        5.54621  1.63632                         14149003  172 
 7.85238    0.01808      5.49189  1.39164                         14149003  173 
 7.88862    0.01816      3.09901  0.98953                         14149003  174 
 7.92503    0.01825      3.80463  1.0005                          14149003  175 
 7.96161    0.01833      3.97314  1.02019                         14149003  176 
 7.99836    0.01842      5.60941  1.25715                         14149003  177 
 8.03528    0.0185       6.51421  1.51071                         14149003  178 
 8.07237    0.01859      5.39968  1.14673                         14149003  179 
 8.10963    0.01867      6.34467  1.23075                         14149003  180 
 8.14706    0.01876      5.9123   1.30992                         14149003  181 
 8.18467    0.01885      5.56074  1.15356                         14149003  182 
 8.22245    0.01893      5.34877  1.11916                         14149003  183 
 8.2604     0.01902      7.98737  1.39183                         14149003  184 
 8.29853    0.01911     10.1341   1.52588                         14149003  185 
 8.33683    0.0192      10.0941   1.44379                         14149003  186 
 8.37532    0.01928     10.7057   1.54243                         14149003  187 
 8.41397    0.01937     16.7884   2.10241                         14149003  188 
 8.45281    0.01946     17.7469   2.11514                         14149003  189 
 8.49183    0.01955     22.2753   2.48794                         14149003  190 
 8.53102    0.01964     33.8788   3.07284                         14149003  191 
 8.5704     0.01973     52.057    4.15379                         14149003  192 
 8.60996    0.01983     65.7098   3.79067                         14149003  193 
 8.6497     0.01992    102.023    3.68754                         14149003  194 
 8.68963    0.02001    146.134    4.69656                         14149003  195 
 8.72974    0.0201     204.094    5.90633                         14149003  196 
 8.77003    0.02019    234.397    6.60492                         14149003  197 
 8.81051    0.02029    228.255    6.27712                         14149003  198 
 8.85118    0.02038    184.512    5.41302                         14149003  199 
 8.89203    0.02047    113.823    4.0931                          14149003  200 
 8.93308    0.02057     79.7353   3.2839                          14149003  201 
 8.97431    0.02066     51.7789   2.58603                         14149003  202 
 9.01574    0.02076     37.6456   2.17                            14149003  203 
 9.05735    0.02086     32.586    1.95967                         14149003  204 
 9.09916    0.02095     29.6747   1.90397                         14149003  205 
 9.14116    0.02105     29.943    1.89498                         14149003  206 
 9.18335    0.02115     34.8778   2.02774                         14149003  207 
 9.22574    0.02124     43.0488   2.232                           14149003  208 
 9.26832    0.02134     49.2566   2.35835                         14149003  209 
 9.3111     0.02144     49.0634   2.3155                          14149003  210 
 9.35408    0.02154     37.6329   2.0692                          14149003  211 
 9.39726    0.02164     24.2095   1.70254                         14149003  212 
 9.44063    0.02174     15.9886   1.38356                         14149003  213 
 9.48421    0.02184     10.1244   1.16049                         14149003  214 
 9.52799    0.02194      8.01803  1.03551                         14149003  215 
 9.57197    0.02204      8.63975  1.07341                         14149003  216 
 9.61615    0.02214      8.14543  1.03646                         14149003  217 
 9.66053    0.02224      7.85573  1.04886                         14149003  218 
 9.70513    0.02235     10.1624   1.13833                         14149003  219 
 9.74992    0.02245      8.75206  1.04565                         14149003  220 
 9.79493    0.02255      7.37887  0.96174                         14149003  221 
 9.84014    0.02266      9.17538  1.00404                         14149003  222 
 9.88556    0.02276      7.44375  0.95158                         14149003  223 
 9.93119    0.02287      7.6701   0.9691                          14149003  224 
 9.97703    0.02297      7.78316  0.93265                         14149003  225 
 10.0231    0.02308      9.44227  0.97335                         14149003  226 
 10.0693    0.02319     12.219    1.13922                         14149003  227 
 10.1158    0.02329     15.6113   1.26265                         14149003  228 
 10.1625    0.0234      18.8377   1.4163                          14149003  229 
 10.2094    0.02351     21.7928   1.54411                         14149003  230 
 10.2565    0.02362     12.0106   1.17187                         14149003  231 
 10.3039    0.02373      9.24687  1.02948                         14149003  232 
 10.3514    0.02384      4.66298  0.80931                         14149003  233 
 10.3992    0.02395      4.75611  0.74901                         14149003  234 
 10.4472    0.02406      4.98263  0.83926                         14149003  235 
 10.4955    0.02417      4.28418  0.72139                         14149003  236 
 10.5439    0.02428      5.24068  0.86991                         14149003  237 
 10.5926    0.02439      3.48583  0.66715                         14149003  238 
 10.6415    0.0245       3.74992  0.69857                         14149003  239 
 10.6906    0.02462      5.15268  0.80037                         14149003  240 
 10.7399    0.02473      4.28757  0.73505                         14149003  241 
 10.7895    0.02484      3.77442  0.71409                         14149003  242 
 10.8393    0.02496      4.72013  0.72065                         14149003  243 
 10.8893    0.02507      6.06838  0.84517                         14149003  244 
 10.9396    0.02519      5.46046  0.80453                         14149003  245 
 10.9901    0.02531      5.5953   0.79433                         14149003  246 
 11.0408    0.02542      8.23676  0.97666                         14149003  247 
 11.0918    0.02554      9.49306  1.01598                         14149003  248 
 11.143     0.02566     11.3418   1.09187                         14149003  249 
 11.1944    0.02578     13.6856   1.23103                         14149003  250 
 11.2461    0.0259      15.8153   1.25862                         14149003  251 
 11.298     0.02601     18.6303   1.38979                         14149003  252 
 11.3501    0.02613     22.5588   1.52249                         14149003  253 
 11.4025    0.02626     30.2284   1.76407                         14149003  254 
 11.4552    0.02638     44.5693   2.27459                         14149003  255 
 11.508     0.0265      68.8923   3.09308                         14149003  256 
 11.5612    0.02662    113.579    4.15948                         14149003  257 
 11.6145    0.02674    221.207    6.58417                         14149003  258 
 11.6681    0.02687    330.952    8.60715                         14149003  259 
 11.722     0.02699    304.92     8.22953                         14149003  260 
 11.7761    0.02712    168.616    5.73547                         14149003  261 
 11.8304    0.02724     63.2949   2.93311                         14149003  262 
 11.8851    0.02737     29.4725   1.67479                         14149003  263 
 11.9399    0.02749     24.5945   1.45214                         14149003  264 
 11.995     0.02762     27.2462   1.54935                         14149003  265 
 12.0504    0.02775     33.0207   1.68695                         14149003  266 
 12.106     0.02788     44.7096   2.01989                         14149003  267 
 12.1619    0.028       63.106    2.57307                         14149003  268 
 12.218     0.02813     97.0437   3.27728                         14149003  269 
 12.2744    0.02826    152.705    4.31123                         14149003  270 
 12.3311    0.02839    264.993    6.06079                         14149003  271 
 12.388     0.02852    422.672    8.28962                         14149003  272 
 12.4452    0.02866    440.959    8.5236                          14149003  273 
 12.5026    0.02879    280.29     6.35178                         14149003  274 
 12.5603    0.02892    123.898    3.94378                         14149003  275 
 12.6183    0.02905     58.6178   2.76914                         14149003  276 
 12.6766    0.02919     29.7134   1.82595                         14149003  277 
 12.7351    0.02932     20.4576   1.54077                         14149003  278 
 12.7938    0.02946     18.5198   1.35915                         14149003  279 
 12.8529    0.02959     14.3493   1.23391                         14149003  280 
 12.9122    0.02973     14.9282   1.2508                          14149003  281 
 12.9718    0.02987     11.4516   1.09237                         14149003  282 
 13.0317    0.03001      8.99143  0.98275                         14149003  283 
 13.0919    0.03015      8.26776  0.8928                          14149003  284 
 13.1523    0.03028      7.01196  0.82777                         14149003  285 
 13.213     0.03042      8.05733  0.9819                          14149003  286 
 13.274     0.03056      7.37183  0.93498                         14149003  287 
 13.3352    0.03071      8.18952  0.97462                         14149003  288 
 13.3968    0.03085      8.62298  0.95148                         14149003  289 
 13.4586    0.03099      7.06591  0.89989                         14149003  290 
 13.5208    0.03113      7.17364  0.96183                         14149003  291 
 13.5832    0.03128      7.63185  1.07088                         14149003  292 
 13.6459    0.03142      7.96231  1.11857                         14149003  293 
 13.7089    0.03157     10.2319   1.24523                         14149003  294 
 13.7721    0.03171     11.9058   1.37543                         14149003  295 
 13.8357    0.03186     12.6299   1.47334                         14149003  296 
 13.8996    0.032        9.87364  1.4323                          14149003  297 
 13.9637    0.03215     12.5102   1.45998                         14149003  298 
 14.0282    0.0323      12.1654   1.51299                         14149003  299 
 14.0929    0.03245     11.9719   1.48362                         14149003  300 
 14.158     0.0326      13.1111   1.46048                         14149003  301 
 14.2233    0.03275     10.2273   1.33388                         14149003  302 
 14.289     0.0329      13.5765   1.38471                         14149003  303 
 14.3549    0.03305     12.3733   1.28034                         14149003  304 
 14.4212    0.03321     18.2382   1.39085                         14149003  305 
 14.4878    0.03336     28.259    1.67571                         14149003  306 
 14.5546    0.03351     39.6954   2.07058                         14149003  307 
 14.6218    0.03367     36.2123   1.90359                         14149003  308 
 14.6893    0.03382     21.6974   1.58331                         14149003  309 
 14.7571    0.03398      8.0263   0.8639                          14149003  310 
 14.8252    0.03414      5.49173  0.73027                         14149003  311 
 14.8937    0.03429      5.36748  0.74473                         14149003  312 
 14.9624    0.03445      4.4073   0.69594                         14149003  313 
 15.0315    0.03461      6.66213  0.7934                          14149003  314 
 15.1008    0.03477      6.83526  0.86401                         14149003  315 
 15.1705    0.03493      9.0821   0.91931                         14149003  316 
 15.2406    0.03509     13.5356   1.12435                         14149003  317 
 15.3109    0.03525     20.4837   1.38249                         14149003  318 
 15.3816    0.03542     36.9473   1.94273                         14149003  319 
 15.4526    0.03558     45.4089   2.17259                         14149003  320 
 15.5239    0.03575     33.0338   1.78203                         14149003  321 
 15.5956    0.03591     21.6769   1.5223                          14149003  322 
 15.6676    0.03608     12.8961   1.1945                          14149003  323 
 15.7399    0.03624     11.4266   1.10333                         14149003  324 
 15.8125    0.03641     13.1484   1.11848                         14149003  325 
 15.8855    0.03658     20.2321   1.47356                         14149003  326 
 15.9588    0.03675     30.6289   1.70532                         14149003  327 
 16.0325    0.03692     60.3662   2.51305                         14149003  328 
 16.1065    0.03709     96.6873   3.32493                         14149003  329 
 16.1808    0.03726     82.7804   3.08756                         14149003  330 
 16.2555    0.03743     35.7502   1.99026                         14149003  331 
 16.3306    0.0376      14.9784   1.27199                         14149003  332 
 16.4059    0.03778     10.2252   1.00462                         14149003  333 
 16.4817    0.03795     13.3316   1.16636                         14149003  334 
 16.5577    0.03813     15.0294   1.30301                         14149003  335 
 16.6342    0.0383      22.4857   1.62597                         14149003  336 
 16.711     0.03848     24.3558   1.7489                          14149003  337 
 16.7881    0.03866     18.719    1.50995                         14149003  338 
 16.8656    0.03883      9.27189  1.09975                         14149003  339 
 16.9434    0.03901      6.34016  0.89071                         14149003  340 
 17.0216    0.03919      3.78224  0.69816                         14149003  341 
 17.1002    0.03937      4.01988  0.72853                         14149003  342 
 17.1791    0.03956      3.38295  0.64422                         14149003  343 
 17.2584    0.03974      2.85586  0.52219                         14149003  344 
 17.3381    0.03992      4.46905  0.69485                         14149003  345 
 17.4181    0.04011      2.76234  0.48706                         14149003  346 
 17.4985    0.04029      3.81948  0.61049                         14149003  347 
 17.5793    0.04048      3.66445  0.5577                          14149003  348 
 17.6604    0.04066      6.37533  0.76988                         14149003  349 
 17.7419    0.04085      6.67336  0.80191                         14149003  350 
 17.8238    0.04104      9.15113  0.97953                         14149003  351 
 17.9061    0.04123     14.5404   1.25675                         14149003  352 
 17.9888    0.04142     21.6311   1.60033                         14149003  353 
 18.0718    0.04161     25.4448   1.73215                         14149003  354 
 18.1552    0.0418      24.2882   1.70797                         14149003  355 
 18.239     0.042       16.7136   1.39904                         14149003  356 
 18.3232    0.04219     10.937    1.11128                         14149003  357 
 18.4078    0.04239     10.6263   1.07109                         14149003  358 
 18.4927    0.04258     11.8309   1.13079                         14149003  359 
 18.5781    0.04278     11.7801   1.00105                         14149003  360 
 18.6638    0.04298     15.9216   1.18904                         14149003  361 
 18.75      0.04317     21.7464   1.40474                         14149003  362 
 18.8365    0.04337     31.4156   1.70324                         14149003  363 
 18.9235    0.04357     45.6448   2.14972                         14149003  364 
 19.0108    0.04377     67.6878   2.66803                         14149003  365 
 19.0986    0.04398    103.041    3.51584                         14149003  366 
 19.1867    0.04418    166.432    4.69459                         14149003  367 
 19.2753    0.04438    280.879    6.62489                         14149003  368 
 19.3643    0.04459    328.448    7.2913                          14149003  369 
 19.4537    0.04479    209.774    5.54867                         14149003  370 
 19.5434    0.045       71.5672   2.97347                         14149003  371 
 19.6337    0.04521     29.2653   1.78609                         14149003  372 
 19.7243    0.04542     18.6503   1.42472                         14149003  373 
 19.8153    0.04563     13.6305   1.24214                         14149003  374 
 19.9068    0.04584     12.2032   1.13795                         14149003  375 
 19.9987    0.04605      9.82363  1.0469                          14149003  376 
 20.091     0.04626     12.1517   1.11287                         14149003  377 
 20.1837    0.04647     12.8104   1.11003                         14149003  378 
 20.2769    0.04669     13.2873   1.1013                          14149003  379 
 20.3705    0.0469      13.4108   1.04473                         14149003  380 
 20.4645    0.04712     17.5997   1.27952                         14149003  381 
 20.559     0.04734     26.5768   1.5521                          14149003  382 
 20.6539    0.04756     37.5074   1.89291                         14149003  383 
 20.7492    0.04778     41.9648   2.0139                          14149003  384 
 20.845     0.048       52.9218   2.3361                          14149003  385 
 20.9412    0.04822     83.5409   2.94131                         14149003  386 
 21.0378    0.04844    167.888    4.56934                         14149003  387 
 21.1349    0.04866    208.028    5.2071                          14149003  388 
 21.2325    0.04889    120.425    3.82751                         14149003  389 
 21.3305    0.04912     39.9157   2.23644                         14149003  390 
 21.429     0.04934     11.2767   1.06605                         14149003  391 
 21.5279    0.04957      7.15542  0.85466                         14149003  392 
 21.6272    0.0498       5.2483   0.75273                         14149003  393 
 21.7271    0.05003      4.74952  0.74087                         14149003  394 
 21.8274    0.05026      3.56374  0.56928                         14149003  395 
 21.9281    0.05049      6.05922  0.90968                         14149003  396 
 22.0293    0.05072      4.3318   0.69008                         14149003  397 
 22.131     0.05096      3.51059  0.58952                         14149003  398 
 22.2332    0.05119      5.31198  0.76228                         14149003  399 
 22.3358    0.05143      5.13186  0.69639                         14149003  400 
 22.4389    0.05167      8.44794  0.94325                         14149003  401 
 22.5425    0.05191      8.77263  0.87748                         14149003  402 
 22.6465    0.05215     13.4816   1.09128                         14149003  403 
 22.751     0.05239     17.2904   1.20619                         14149003  404 
 22.856     0.05263     34.1328   1.79054                         14149003  405 
 22.9615    0.05287     52.9586   2.34871                         14149003  406 
 23.0675    0.05311     57.3795   2.4842                          14149003  407 
 23.174     0.05336     42.154    2.05719                         14149003  408 
 23.281     0.05361     52.1553   2.20889                         14149003  409 
 23.3884    0.05385    111.219    3.60193                         14149003  410 
 23.4964    0.0541     144.711    4.18009                         14149003  411 
 23.6048    0.05435     84.6249   3.06437                         14149003  412 
 23.7138    0.0546      42.8432   2.27232                         14149003  413 
 23.8233    0.05486     26.9662   1.89763                         14149003  414 
 23.9332    0.05511     19.7771   1.56742                         14149003  415 
 24.0437    0.05536     17.6748   1.41676                         14149003  416 
 24.1547    0.05562     29.2125   1.74496                         14149003  417 
 24.2662    0.05587     42.1893   2.10273                         14149003  418 
 24.3782    0.05613     37.4845   2.04645                         14149003  419 
 24.4907    0.05639     20.4048   1.55913                         14149003  420 
 24.6037    0.05665      7.21585  1.1042                          14149003  421 
 24.7173    0.05691      4.60351  0.99737                         14149003  422 
 24.8314    0.05718      3.29018  0.93602                         14149003  423 
 24.946     0.05744      3.71251  0.9978                          14149003  424 
 25.0612    0.05771      3.4595   0.99991                         14149003  425 
 25.1768    0.05797      4.7131   1.0761                          14149003  426 
 25.293     0.05824      5.81597  1.18411                         14149003  427 
 25.4098    0.05851      5.75485  1.24688                         14149003  428 
 25.5271    0.05878      6.70464  1.2762                          14149003  429 
 25.6449    0.05905      7.49898  1.34323                         14149003  430 
 25.7633    0.05932      7.09343  1.30033                         14149003  431 
 25.8822    0.0596       7.86849  1.20544                         14149003  432 
 26.0017    0.05987      7.32826  1.01639                         14149003  433 
 26.1217    0.06015      8.07924  0.94637                         14149003  434 
 26.2423    0.06042      8.34626  0.98291                         14149003  435 
 26.3634    0.0607      11.9912   1.17015                         14149003  436 
 26.4851    0.06098     14.9267   1.4237                          14149003  437 
 26.6073    0.06127     13.3933   1.41894                         14149003  438 
 26.7301    0.06155      8.14082  1.13258                         14149003  439 
 26.8535    0.06183      7.37872  0.99587                         14149003  440 
 26.9775    0.06212      5.91311  0.86407                         14149003  441 
 27.102     0.0624       7.76255  0.88827                         14149003  442 
 27.2271    0.06269      8.24689  0.98179                         14149003  443 
 27.3528    0.06298      7.84841  0.91435                         14149003  444 
 27.479     0.06327      8.09014  0.95642                         14149003  445 
 27.6059    0.06356     10.6942   1.0472                          14149003  446 
 27.7333    0.06386     23.8897   1.59805                         14149003  447 
 27.8613    0.06415     33.8285   1.94541                         14149003  448 
 27.9899    0.06445     23.6958   1.66777                         14149003  449 
 28.1191    0.06475     12.2386   1.22253                         14149003  450 
 28.2489    0.06505     10.5906   1.07528                         14149003  451 
 28.3793    0.06535      9.43271  1.03485                         14149003  452 
 28.5103    0.06565      7.72236  0.91686                         14149003  453 
 28.6419    0.06595      4.66709  0.70428                         14149003  454 
 28.7741    0.06625      3.92366  0.64638                         14149003  455 
 28.9069    0.06656      3.4322   0.62165                         14149003  456 
 29.0403    0.06687      2.71116  0.54198                         14149003  457 
 29.1743    0.06718      3.12053  0.52813                         14149003  458 
 29.309     0.06749      2.53898  0.53439                         14149003  459 
 29.4443    0.0678       4.34467  0.66992                         14149003  460 
 29.5802    0.06811      9.52362  0.9344                          14149003  461 
 29.7167    0.06843     16.6937   1.28819                         14149003  462 
 29.8539    0.06874     11.0864   1.0673                          14149003  463 
 29.9917    0.06906      5.38891  0.69155                         14149003  464 
 30.1301    0.06938      4.42638  0.62733                         14149003  465 
 30.2692    0.0697       6.26089  0.74484                         14149003  466 
 30.4089    0.07002      9.34457  0.93546                         14149003  467 
 30.5493    0.07034     15.5335   1.19711                         14149003  468 
 30.6903    0.07067     23.6634   1.48628                         14149003  469 
 30.832     0.07099     41.8918   2.10777                         14149003  470 
 30.9743    0.07132     55.8281   2.63289                         14149003  471 
 31.1172    0.07165     24.0051   1.6262                          14149003  472 
 31.2609    0.07198      8.63803  0.85164                         14149003  473 
 31.4052    0.07231      6.79767  0.74995                         14149003  474 
 31.5501    0.07265     10.9845   1.03046                         14149003  475 
 31.6958    0.07298     16.4296   1.30734                         14149003  476 
 31.8421    0.07332     28.6893   1.70007                         14149003  477 
 31.989     0.07366     55.4222   2.42527                         14149003  478 
 32.1367    0.074       99.5064   3.43575                         14149003  479 
 32.285     0.07434     71.8585   2.98095                         14149003  480 
 32.434     0.07468     24.674    1.67039                         14149003  481 
 32.5838    0.07503      9.49636  0.90228                         14149003  482 
 32.7342    0.07537      8.59326  0.81178                         14149003  483 
 32.8853    0.07572     12.3453   1.05801                         14149003  484 
 33.037     0.07607     17.7074   1.31623                         14149003  485 
 33.1895    0.07642     23.9616   1.47839                         14149003  486 
 33.3427    0.07677     48.1369   2.15391                         14149003  487 
 33.4966    0.07713    113.488    3.6494                          14149003  488 
 33.6512    0.07748    147.992    4.40736                         14149003  489 
 33.8066    0.07784     61.3123   2.63918                         14149003  490 
 33.9626    0.0782      32.8815   1.80532                         14149003  491 
 34.1194    0.07856     40.3671   1.97534                         14149003  492 
 34.2769    0.07893     76.5402   3.29258                         14149003  493 
 34.4351    0.07929    132.68     4.97146                         14149003  494 
 34.594     0.07966     91.409    3.53045                         14149003  495 
 34.7537    0.08002     58.1379   2.32834                         14149003  496 
 34.9141    0.08039     86.6199   2.95771                         14149003  497 
 35.0753    0.08076    113.7      3.35388                         14149003  498 
 35.2372    0.08114    142.232    3.94706                         14149003  499 
 35.3998    0.08151    109.833    3.6172                          14149003  500 
 35.5632    0.08189     35.7714   2.04524                         14149003  501 
 35.7274    0.08227     12.38     1.20419                         14149003  502 
 35.8923    0.08264      5.51092  0.88113                         14149003  503 
 36.058     0.08303      4.64743  0.75391                         14149003  504 
 36.2244    0.08341      2.43942  0.5634                          14149003  505 
 36.3916    0.08379      2.16128  0.49273                         14149003  506 
 36.5596    0.08418      2.35572  0.50588                         14149003  507 
 36.7283    0.08457      2.1458   0.46807                         14149003  508 
 36.8979    0.08496      2.00737  0.45766                         14149003  509 
 37.0682    0.08535      1.88432  0.44114                         14149003  510 
 37.2393    0.08575      1.85409  0.44153                         14149003  511 
 37.4112    0.08614      3.10818  0.51771                         14149003  512 
 37.5838    0.08654      2.18133  0.49436                         14149003  513 
 37.7573    0.08694      2.74654  0.51398                         14149003  514 
 37.9316    0.08734      4.00118  0.59579                         14149003  515 
 38.1067    0.08774      4.83054  0.62842                         14149003  516 
 38.2826    0.08815      6.55232  0.74827                         14149003  517 
 38.4593    0.08856      7.37045  0.81918                         14149003  518 
 38.6368    0.08896      8.38479  0.81943                         14149003  519 
 38.8151    0.08938     11.5429   0.93554                         14149003  520 
 38.9943    0.08979     16.1102   1.09852                         14149003  521 
 39.1743    0.0902      28.0741   1.41217                         14149003  522 
 39.3551    0.09062     59.8532   2.14476                         14149003  523 
 39.5368    0.09104     85.3199   2.74386                         14149003  524 
 39.7193    0.09146     40.848    1.94297                         14149003  525 
 39.9026    0.09188     13.5252   1.05736                         14149003  526 
 40.0868    0.0923       8.65746  0.87791                         14149003  527 
 40.2718    0.09273      9.15     0.8963                          14149003  528 
 40.4577    0.09316      7.11385  0.79726                         14149003  529 
 40.6444    0.09359      8.36742  0.89185                         14149003  530 
 40.832     0.09402      9.02176  0.93612                         14149003  531 
 41.0205    0.09445      7.9237   0.82697                         14149003  532 
 41.2099    0.09489     12.817    1.00566                         14149003  533 
 41.4001    0.09533     19.9923   1.23387                         14149003  534 
 41.5912    0.09577     30.2218   1.51565                         14149003  535 
 41.7831    0.09621     53.1691   2.00681                         14149003  536 
 41.976     0.09665     88.654    2.87021                         14149003  537 
 42.1698    0.0971      50.7712   2.08973                         14149003  538 
 42.3644    0.09755     19.6069   1.21276                         14149003  539 
 42.56      0.098       19.8028   1.27022                         14149003  540 
 42.7564    0.09845     23.93     1.33219                         14149003  541 
 42.9538    0.0989      18.4488   1.12596                         14149003  542 
 43.152     0.09936     13.7793   0.95307                         14149003  543 
 43.3512    0.09982     26.3814   1.32855                         14149003  544 
 43.5513    0.10028     40.2219   1.77933                         14149003  545 
 43.7523    0.10074     14.4265   1.06995                         14149003  546 
 43.9543    0.10121      9.03229  0.90979                         14149003  547 
 44.1572    0.10168     10.8161   1.02404                         14149003  548 
 44.361     0.10215      7.6485   0.91708                         14149003  549 
 44.5657    0.10262     14.1911   1.13284                         14149003  550 
 44.7714    0.10309     16.302    1.25553                         14149003  551 
 44.9781    0.10357      8.67133  0.9819                          14149003  552 
 45.1857    0.10404      5.35057  0.83367                         14149003  553 
 45.3943    0.10452      5.36727  0.77569                         14149003  554 
 45.6038    0.10501      4.11933  0.66682                         14149003  555 
 45.8143    0.10549      6.49674  0.73048                         14149003  556 
 46.0258    0.10598      7.14914  0.79114                         14149003  557 
 46.2382    0.10647      7.0221   0.758                           14149003  558 
 46.4517    0.10696      7.14913  0.71282                         14149003  559 
 46.6661    0.10745     12.6527   0.948                           14149003  560 
 46.8815    0.10795     22.0536   1.31989                         14149003  561 
 47.0979    0.10845     26.8161   1.56732                         14149003  562 
 47.3153    0.10895     21.2251   1.42026                         14149003  563 
 47.5336    0.10945     11.7791   1.00869                         14149003  564 
 47.7531    0.10996     14.8999   1.02242                         14149003  565 
 47.9735    0.11046     32.466    1.55668                         14149003  566 
 48.1949    0.11097     34.7099   1.70058                         14149003  567 
 48.4174    0.11149     19.4457   1.32696                         14149003  568 
 48.6408    0.112       24.652    1.42728                         14149003  569 
 48.8654    0.11252     29.2195   1.4929                          14149003  570 
 49.0909    0.11304     24.8234   1.44797                         14149003  571 
 49.3175    0.11356     29.557    1.49101                         14149003  572 
 49.5452    0.11408     49.7912   2.01422                         14149003  573 
 49.7738    0.11461     29.2699   1.5173                          14149003  574 
 50.0036    0.11514     15.7513   1.04608                         14149003  575 
 50.2344    0.11567     24.0086   1.28794                         14149003  576 
 50.4663    0.1162      34.0551   1.60737                         14149003  577 
 50.6992    0.11674     34.1767   1.70106                         14149003  578 
 50.9332    0.11728     21.2644   1.37548                         14149003  579 
 51.1683    0.11782     29.5939   1.63656                         14149003  580 
 51.4045    0.11836     58.631    2.38768                         14149003  581 
 51.6418    0.11891     44.8822   2.14738                         14149003  582 
 51.8801    0.11946     18.2616   1.32642                         14149003  583 
 52.1196    0.12001     10.7364   1.21214                         14149003  584 
 52.3602    0.12056     11.5186   1.32724                         14149003  585 
 52.6019    0.12112      9.01676  1.20473                         14149003  586 
 52.8447    0.12168      6.3199   0.87156                         14149003  587 
 53.0886    0.12224      5.35538  0.70034                         14149003  588 
 53.3336    0.12281      8.07437  0.76525                         14149003  589 
 53.5798    0.12337     12.1816   0.96633                         14149003  590 
 53.8271    0.12394      9.55649  0.89011                         14149003  591 
 54.0756    0.12451      7.97172  0.7931                          14149003  592 
 54.3252    0.12509     12.1567   0.94788                         14149003  593 
 54.5759    0.12567     15.7013   1.03096                         14149003  594 
 54.8278    0.12625     27.7292   1.38253                         14149003  595 
 55.0809    0.12683     58.4992   2.11029                         14149003  596 
 55.3352    0.12741     78.3324   2.66683                         14149003  597 
 55.5906    0.128       25.7003   1.53852                         14149003  598 
 55.8472    0.12859     25.579    1.57795                         14149003  599 
 56.1049    0.12919     36.7135   1.94812                         14149003  600 
 56.3639    0.12978     55.5287   2.28081                         14149003  601 
 56.6241    0.13038     84.0602   2.81115                         14149003  602 
 56.8854    0.13098     52.2135   2.38858                         14149003  603 
 57.148     0.13159     11.8033   1.14258                         14149003  604 
 57.4118    0.1322       9.84372  0.91279                         14149003  605 
 57.6768    0.13281     15.1714   1.10017                         14149003  606 
 57.943     0.13342     28.4974   1.51439                         14149003  607 
 58.2105    0.13403     52.0902   2.17114                         14149003  608 
 58.4792    0.13465     27.6791   1.53651                         14149003  609 
 58.7491    0.13528     16.6704   1.1729                          14149003  610 
 59.0203    0.1359      10.3826   1.06191                         14149003  611 
 59.2927    0.13653      4.03358  0.72039                         14149003  612 
 59.5664    0.13716      4.21664  0.6175                          14149003  613 
 59.8413    0.13779      5.19948  0.70871                         14149003  614 
 60.1175    0.13843      5.75505  0.80041                         14149003  615 
 60.395     0.13906      8.82942  1.02413                         14149003  616 
 60.6738    0.13971      8.04883  0.9534                          14149003  617 
 60.9539    0.14035      8.32462  0.838                           14149003  618 
 61.2352    0.141        7.60433  0.83516                         14149003  619 
 61.5179    0.14165      3.30759  0.6645                          14149003  620 
 61.8018    0.1423       1.69205  0.5072                          14149003  621 
 62.0871    0.14296      2.64788  0.51268                         14149003  622 
 62.3736    0.14362      2.33461  0.53059                         14149003  623 
 62.6616    0.14428      3.46097  0.58246                         14149003  624 
 62.9508    0.14495      4.28254  0.65017                         14149003  625 
 63.2414    0.14562      4.43901  0.62211                         14149003  626 
 63.5333    0.14629      6.98831  0.76778                         14149003  627 
 63.8265    0.14697     10.2209   0.93129                         14149003  628 
 64.1211    0.14764     24.0378   1.45415                         14149003  629 
 64.4171    0.14833     45.4745   2.32009                         14149003  630 
 64.7144    0.14901     24.2311   1.69021                         14149003  631 
 65.0131    0.1497       3.85551  0.59995                         14149003  632 
 65.3132    0.15039      3.46113  0.51643                         14149003  633 
 65.6147    0.15108      5.38852  0.5937                          14149003  634 
 65.9176    0.15178     10.8014   0.8941                          14149003  635 
 66.2218    0.15248      8.26224  0.79847                         14149003  636 
 66.5275    0.15319      8.33126  0.74289                         14149003  637 
 66.8346    0.15389      6.6431   0.85024                         14149003  638 
 67.1431    0.1546       2.51098  0.44723                         14149003  639 
 67.453     0.15532      1.21322  0.2941                          14149003  640 
 67.7643    0.15603      1.27391  0.34409                         14149003  641 
 68.0771    0.15675      1.56021  0.35695                         14149003  642 
 68.3913    0.15748      2.64011  0.42326                         14149003  643 
 68.707     0.1582       3.86438  0.52049                         14149003  644 
 69.0242    0.15893      3.46325  0.53123                         14149003  645 
 69.3428    0.15967      6.17693  0.74971                         14149003  646 
 69.6628    0.1604       6.81474  0.84542                         14149003  647 
 69.9844    0.16115     10.0188   0.91459                         14149003  648 
 70.3074    0.16189     17.7881   1.17413                         14149003  649 
 70.6319    0.16264     34.0826   1.75755                         14149003  650 
 70.958     0.16339     23.6946   1.60278                         14149003  651 
 71.2855    0.16414     11.7698   1.16736                         14149003  652 
 71.6145    0.1649       6.06623  0.75485                         14149003  653 
 71.9451    0.16566      8.00183  0.78902                         14149003  654 
 72.2772    0.16642     11.4638   0.90031                         14149003  655 
 72.6108    0.16719     19.86     1.30269                         14149003  656 
 72.9459    0.16796     11.9924   1.17476                         14149003  657 
 73.2826    0.16874      5.27626  0.75677                         14149003  658 
 73.6209    0.16952      5.00259  0.66082                         14149003  659 
 73.9607    0.1703       7.91898  0.79111                         14149003  660 
 74.3021    0.17109     15.661    1.04991                         14149003  661 
 74.6451    0.17188     31.8898   1.54586                         14149003  662 
 74.9896    0.17267     22.6938   1.49868                         14149003  663 
 75.3358    0.17347     10.5355   1.0379                          14149003  664 
 75.6835    0.17427      8.42138  0.93599                         14149003  665 
 76.0328    0.17507      7.52789  0.9321                          14149003  666 
 76.3838    0.17588      3.67884  0.62916                         14149003  667 
 76.7364    0.17669      3.36953  0.50755                         14149003  668 
 77.0906    0.17751      4.65052  0.59112                         14149003  669 
 77.4464    0.17833      7.95151  0.7719                          14149003  670 
 77.8039    0.17915     12.1023   1.00079                         14149003  671 
 78.163     0.17998     11.2547   0.9718                          14149003  672 
 78.5238    0.18081     12.5786   1.09694                         14149003  673 
 78.8862    0.18164      3.57875  0.61848                         14149003  674 
 79.2503    0.18248      3.77769  0.53259                         14149003  675 
 79.6161    0.18332      6.08211  0.64408                         14149003  676 
 79.9836    0.18417     10.0184   0.89365                         14149003  677 
 80.3528    0.18502      8.88519  0.82775                         14149003  678 
 80.7237    0.18587      8.6186   0.86119                         14149003  679 
 81.0963    0.18673      8.57112  0.81153                         14149003  680 
 81.4706    0.18759     10.2015   0.83342                         14149003  681 
 81.8467    0.18846     14.5452   1.11725                         14149003  682 
 82.2245    0.18933     10.6782   0.8965                          14149003  683 
 82.604     0.1902      19.1055   1.12576                         14149003  684 
 82.9853    0.19108     28.2071   1.45999                         14149003  685 
 83.3683    0.19196     13.8102   1.0556                          14149003  686 
 83.7532    0.19285     18.9339   1.167                           14149003  687 
 84.1397    0.19374     15.5306   1.26975                         14149003  688 
 84.5281    0.19463     15.215    1.37386                         14149003  689 
 84.9183    0.19553      6.59338  1.02573                         14149003  690 
 85.3102    0.19643      4.33964  0.86751                         14149003  691 
 85.704     0.19734      2.60076  0.70802                         14149003  692 
 86.0996    0.19825      5.66867  0.74172                         14149003  693 
 86.497     0.19917      3.70182  0.53688                         14149003  694 
 86.8963    0.20009      5.65464  0.6663                          14149003  695 
 87.2974    0.20101      6.17702  0.71304                         14149003  696 
 87.7003    0.20194      5.84309  0.71579                         14149003  697 
 88.1051    0.20287      7.84377  0.82363                         14149003  698 
 88.5118    0.20381      6.72583  0.77632                         14149003  699 
 88.9203    0.20475     12.1947   1.05397                         14149003  700 
 89.3308    0.20569     19.6917   1.35882                         14149003  701 
 89.7431    0.20664     22.6824   1.39576                         14149003  702 
 90.1574    0.2076      41.3673   1.88809                         14149003  703 
 90.5735    0.20855     79.5919   2.89258                         14149003  704 
 90.9916    0.20952     32.7082   1.61573                         14149003  705 
 91.4116    0.21048     13.5999   1.10032                         14149003  706 
 91.8335    0.21145     16.9054   1.2947                          14149003  707 
 92.2574    0.21243     17.6754   1.15103                         14149003  708 
 92.6832    0.21341     26.7746   1.3744                          14149003  709 
 93.111     0.2144      32.2563   1.84283                         14149003  710 
 93.5408    0.21539     18.3762   1.33006                         14149003  711 
 93.9726    0.21638     32.4721   1.823                           14149003  712 
 94.4063    0.21738     53.883    2.48497                         14149003  713 
 94.8421    0.21838     14.6704   1.08997                         14149003  714 
 95.2799    0.21939      4.5528   0.63937                         14149003  715 
 95.7197    0.2204       2.86711  0.59826                         14149003  716 
 96.1615    0.22142      1.57672  0.59879                         14149003  717 
 96.6053    0.22244      2.09687  0.5475                          14149003  718 
 97.0513    0.22347      2.52527  0.58233                         14149003  719 
 97.4992    0.2245       4.11515  0.57378                         14149003  720 
 97.9493    0.22554      4.90704  0.61573                         14149003  721 
 98.4014    0.22658      9.47804  0.97304                         14149003  722 
 98.8556    0.22762      7.03853  0.90325                         14149003  723 
 99.3119    0.22867      3.73543  0.52702                         14149003  724 
 99.7703    0.22973      4.2356   0.52642                         14149003  725 
 100.231    0.23079      5.20874  0.62411                         14149003  726 
 100.693    0.23186      9.91076  0.83205                         14149003  727 
 101.158    0.23293     11.446    0.94158                         14149003  728 
 101.625    0.234       10.679    1.06337                         14149003  729 
 102.094    0.23508      7.41768  0.74929                         14149003  730 
 102.565    0.23617      8.99905  0.80499                         14149003  731 
 103.039    0.23726     16.0621   1.07505                         14149003  732 
 103.514    0.23835     23.8755   1.46823                         14149003  733 
 103.992    0.23945     20.0339   1.36264                         14149003  734 
 104.472    0.24056      6.55732  0.82797                         14149003  735 
 104.955    0.24167      8.24287  0.7748                          14149003  736 
 105.439    0.24278     10.3199   0.95544                         14149003  737 
 105.926    0.2439      13.0515   1.16365                         14149003  738 
 106.415    0.24503     10.8661   0.92818                         14149003  739 
 106.906    0.24616     14.8288   1.13241                         14149003  740 
 107.399    0.2473      26.418    1.59548                         14149003  741 
 107.895    0.24844     52.5134   2.40928                         14149003  742 
 108.393    0.24958     32.7461   2.04184                         14149003  743 
 108.893    0.25074     14.1112   1.06121                         14149003  744 
 109.396    0.25189     20.9539   1.4079                          14149003  745 
 109.901    0.25306     26.6816   1.67662                         14149003  746 
 110.408    0.25422     22.2689   1.48546                         14149003  747 
 110.918    0.2554       7.11972  0.908                           14149003  748 
 111.43     0.25658      5.47481  0.61278                         14149003  749 
 111.944    0.25776     11.1077   0.94651                         14149003  750 
 112.461    0.25895      7.21956  0.79801                         14149003  751 
 112.98     0.26015      6.34586  0.62324                         14149003  752 
 113.501    0.26135      5.72634  0.67084                         14149003  753 
 114.025    0.26255      5.17529  0.74246                         14149003  754 
 114.552    0.26376      4.12189  0.64956                         14149003  755 
 115.08     0.26498      4.71788  0.57846                         14149003  756 
 115.612    0.26621      5.98297  0.70846                         14149003  757 
 116.145    0.26743      6.31301  0.82338                         14149003  758 
 116.681    0.26867      6.0272   0.91793                         14149003  759 
 117.22     0.26991      3.4136   0.60086                         14149003  760 
 117.761    0.27115      3.84364  0.60586                         14149003  761 
 118.304    0.27241      8.78813  0.87816                         14149003  762 
 118.851    0.27366     21.2463   1.34718                         14149003  763 
 119.399    0.27493     10.2587   1.06329                         14149003  764 
 119.95     0.2762       3.03979  0.58768                         14149003  765 
 120.504    0.27747      4.22984  0.62127                         14149003  766 
 121.06     0.27875      3.3287   0.59666                         14149003  767 
 121.619    0.28004      8.74364  0.82102                         14149003  768 
 122.18     0.28133     19.6053   1.31054                         14149003  769 
 122.744    0.28263     20.999    1.65164                         14149003  770 
 123.311    0.28393      9.78401  0.84997                         14149003  771 
 123.88     0.28524      5.60911  0.64202                         14149003  772 
 124.452    0.28656      8.40693  0.82983                         14149003  773 
 125.026    0.28788     15.5333   1.06357                         14149003  774 
 125.603    0.28921     22.8521   1.34037                         14149003  775 
 126.183    0.29055     24.3727   1.40468                         14149003  776 
 126.766    0.29189     12.3917   1.24277                         14149003  777 
 127.351    0.29324      6.72587  0.95807                         14149003  778 
 127.938    0.29459      5.47722  0.7125                          14149003  779 
 128.529    0.29595      9.76935  0.93266                         14149003  780 
 129.122    0.29731      7.21635  0.83131                         14149003  781 
 129.718    0.29869     10.396    0.87524                         14149003  782 
 130.317    0.30007     19.1535   1.30772                         14149003  783 
 130.919    0.30145      6.04843  0.69871                         14149003  784 
 131.523    0.30284      6.06597  0.80829                         14149003  785 
 132.13     0.30424      8.724    1.03451                         14149003  786 
 132.74     0.30564     13.0662   1.13222                         14149003  787 
 133.352    0.30706     17.4332   1.24747                         14149003  788 
 133.968    0.30847     30.7601   1.66083                         14149003  789 
 134.586    0.3099      12.9      1.07919                         14149003  790 
 135.208    0.31133      9.05373  0.92535                         14149003  791 
 135.832    0.31276     15.5692   1.30915                         14149003  792 
 136.459    0.31421     33.1919   1.9481                          14149003  793 
 137.089    0.31566     17.364    1.26521                         14149003  794 
 137.721    0.31711     15.7247   1.0665                          14149003  795 
 138.357    0.31858     13.2827   1.19936                         14149003  796 
 138.996    0.32005      5.38783  0.63306                         14149003  797 
 139.637    0.32153      6.58428  0.70647                         14149003  798 
 140.282    0.32301      5.65284  0.68041                         14149003  799 
 140.929    0.3245       6.8354   0.75584                         14149003  800 
 141.58     0.326       10.273    0.84262                         14149003  801 
 142.233    0.3275      20.0243   1.1888                          14149003  802 
 142.89     0.32902     17.41     1.33991                         14149003  803 
 143.549    0.33053      3.6401   0.62838                         14149003  804 
 144.212    0.33206      4.80688  0.64048                         14149003  805 
 144.878    0.33359      5.55478  0.59788                         14149003  806 
 145.546    0.33513     14.1928   1.00457                         14149003  807 
 146.218    0.33668     25.4905   1.55083                         14149003  808 
 146.893    0.33823      8.78744  0.89564                         14149003  809 
 147.571    0.33979      9.96032  0.86818                         14149003  810 
 148.252    0.34136      9.68224  0.97202                         14149003  811 
 148.937    0.34294      6.66562  0.71529                         14149003  812 
 149.624    0.34452     11.3635   1.0141                          14149003  813 
 150.315    0.34611     10.5472   1.04139                         14149003  814 
 151.008    0.34771      7.90825  0.87154                         14149003  815 
 151.705    0.34931      8.21813  0.78811                         14149003  816 
 152.406    0.35093      7.88554  0.77901                         14149003  817 
 153.109    0.35255      9.72697  0.79926                         14149003  818 
 153.816    0.35417     19.7816   1.22571                         14149003  819 
 154.526    0.35581     13.7949   1.18734                         14149003  820 
 155.239    0.35745     11.7317   0.91892                         14149003  821 
 155.956    0.3591      16.948    1.11896                         14149003  822 
 156.676    0.36076     20.765    1.24868                         14149003  823 
 157.399    0.36242     20.8242   1.29128                         14149003  824 
 158.125    0.3641       9.71915  0.88416                         14149003  825 
 158.855    0.36578      6.16882  0.6891                          14149003  826 
 159.588    0.36747      9.48414  0.92035                         14149003  827 
 160.325    0.36916     17.8079   1.27734                         14149003  828 
 161.065    0.37087     23.1711   1.34465                         14149003  829 
 161.808    0.37258     20.9798   1.32546                         14149003  830 
 162.555    0.3743       4.21438  0.61532                         14149003  831 
 163.306    0.37602      5.27115  0.71054                         14149003  832 
 164.059    0.37776      9.32834  0.91743                         14149003  833 
 164.817    0.3795       9.59561  1.05313                         14149003  834 
 165.577    0.38126     10.6931   0.8867                          14149003  835 
 166.342    0.38302     13.592    1.03518                         14149003  836 
 167.11     0.38478      6.11987  0.83935                         14149003  837 
 167.881    0.38656      4.58412  0.707                           14149003  838 
 168.656    0.38834      7.33236  0.88443                         14149003  839 
 169.434    0.39014      6.86754  0.88708                         14149003  840 
 170.216    0.39194      5.48397  0.73928                         14149003  841 
 171.002    0.39375      6.19467  0.76114                         14149003  842 
 171.791    0.39556      4.10447  0.56851                         14149003  843 
 172.584    0.39739      4.84068  0.63976                         14149003  844 
 173.381    0.39922      3.51655  0.54969                         14149003  845 
 174.181    0.40107      7.36539  0.77107                         14149003  846 
 174.985    0.40292     11.5456   1.03104                         14149003  847 
 175.793    0.40478      8.92959  0.97962                         14149003  848 
 176.604    0.40665      8.15604  0.84999                         14149003  849 
 177.419    0.40852     16.3747   1.17724                         14149003  850 
 178.238    0.41041     31.2334   1.67568                         14149003  851 
 179.061    0.4123      30.7364   1.84486                         14149003  852 
 179.888    0.41421     20.5147   1.29394                         14149003  853 
 180.718    0.41612     14.4177   1.00944                         14149003  854 
 181.552    0.41804     10.2068   0.96622                         14149003  855 
 182.39     0.41997      8.99336  0.85784                         14149003  856 
 183.232    0.42191     10.2542   1.00916                         14149003  857 
 184.078    0.42385      4.83203  0.67228                         14149003  858 
 184.927    0.42581      6.414    0.77568                         14149003  859 
 185.781    0.42778      2.84917  0.43754                         14149003  860 
 186.638    0.42975      4.48573  0.5802                          14149003  861 
 187.5      0.43173      3.10744  0.52282                         14149003  862 
 188.365    0.43373      5.14047  0.61824                         14149003  863 
 189.235    0.43573     10.272    0.84876                         14149003  864 
 190.108    0.43774     16.0954   1.07783                         14149003  865 
 190.986    0.43976      8.60228  0.89028                         14149003  866 
 191.867    0.44179      8.62961  0.78374                         14149003  867 
 192.753    0.44383     17.5529   1.14016                         14149003  868 
 193.643    0.44588     11.8816   1.20438                         14149003  869 
 194.537    0.44794      4.60642  0.64437                         14149003  870 
 195.434    0.45         5.70214  0.8174                          14149003  871 
 196.337    0.45208      4.38532  0.62786                         14149003  872 
 197.243    0.45417      4.92752  0.67106                         14149003  873 
 198.153    0.45626      7.06544  0.76515                         14149003  874 
 199.068    0.45837      6.57654  0.8663                          14149003  875 
 199.987    0.46049     11.9433   1.07333                         14149003  876 
 200.91     0.46261     18.9195   1.26764                         14149003  877 
 201.837    0.46475     15.4059   1.39787                         14149003  878 
 202.769    0.46689      8.29526  0.82996                         14149003  879 
 203.705    0.46905      4.89492  0.65059                         14149003  880 
 204.645    0.47121      7.41413  0.8793                          14149003  881 
 205.59     0.47339      8.66944  0.94577                         14149003  882 
 206.539    0.47557      8.183    0.78998                         14149003  883 
 207.492    0.47777     10.8614   0.95006                         14149003  884 
 208.45     0.47997     14.4396   1.2843                          14149003  885 
 209.412    0.48219     17.72     1.29418                         14149003  886 
 210.378    0.48441     27.0986   1.67857                         14149003  887 
 211.349    0.48665     10.1328   0.88132                         14149003  888 
 212.325    0.4889       9.05463  0.86925                         14149003  889 
 213.305    0.49115      4.21626  0.64569                         14149003  890 
 214.29     0.49342      9.19433  0.9363                          14149003  891 
 215.279    0.4957       4.74075  0.88892                         14149003  892 
 216.272    0.49799      2.97657  0.5882                          14149003  893 
 217.271    0.50028      4.10007  0.60878                         14149003  894 
 218.274    0.50259      4.96907  0.73147                         14149003  895 
 219.281    0.50491      5.6107   0.7031                          14149003  896 
 220.293    0.50724      6.2797   0.7725                          14149003  897 
 221.31     0.50958     12.3389   1.0859                          14149003  898 
 222.332    0.51194     13.4476   1.23851                         14149003  899 
 223.358    0.5143      16.9774   1.20571                         14149003  900 
 224.389    0.51667     25.6301   1.45952                         14149003  901 
 225.425    0.51906     36.383    1.76911                         14149003  902 
 226.465    0.52145     25.8434   1.60918                         14149003  903 
 227.51     0.52386     15.7876   1.13364                         14149003  904 
 228.56     0.52628      7.41639  0.86586                         14149003  905 
 229.615    0.52871      9.81582  0.87228                         14149003  906 
 230.675    0.53115     14.9422   1.11824                         14149003  907 
 231.74     0.5336      22.027    1.28147                         14149003  908 
 232.81     0.53606     13.6376   1.21428                         14149003  909 
 233.884    0.53854     11.0594   1.05107                         14149003  910 
 234.964    0.54102      9.68704  1.08231                         14149003  911 
 236.048    0.54352      2.65137  0.53472                         14149003  912 
 237.138    0.54603      3.48878  0.53539                         14149003  913 
 238.233    0.54855      2.45814  0.52493                         14149003  914 
 239.332    0.55108      2.3305   0.58809                         14149003  915 
 240.437    0.55363      3.42881  0.7151                          14149003  916 
 241.547    0.55618      5.78075  0.80768                         14149003  917 
 242.662    0.55875      5.29546  0.93547                         14149003  918 
 243.782    0.56133      4.08802  0.71009                         14149003  919 
 244.907    0.56392      3.81887  0.63494                         14149003  920 
 246.037    0.56652      5.9578   0.72791                         14149003  921 
 247.173    0.56914      9.49819  0.96629                         14149003  922 
 248.314    0.57176     11.9022   0.91924                         14149003  923 
 249.46     0.5744       9.79982  0.92499                         14149003  924 
 250.612    0.57705      3.94751  0.75847                         14149003  925 
 251.768    0.57972      3.692    0.58299                         14149003  926 
 252.93     0.58239      3.89009  0.70089                         14149003  927 
 254.098    0.58508      6.92722  0.86824                         14149003  928 
 255.271    0.58778      6.69575  0.9349                          14149003  929 
 256.449    0.5905       6.5927   0.7593                          14149003  930 
 257.633    0.59322      4.89983  0.78099                         14149003  931 
 258.822    0.59596      4.12231  0.57637                         14149003  932 
 260.017    0.59871      7.35008  0.72954                         14149003  933 
 261.217    0.60147     15.8313   1.14077                         14149003  934 
 262.423    0.60425     19.7324   1.3654                          14149003  935 
 263.634    0.60704     10.0616   1.19524                         14149003  936 
 264.851    0.60984      5.89599  0.69217                         14149003  937 
 266.073    0.61266      5.23429  0.66527                         14149003  938 
 267.301    0.61548      5.41092  0.82161                         14149003  939 
 268.535    0.61832      7.01642  0.88464                         14149003  940 
 269.775    0.62118      7.75246  0.85651                         14149003  941 
 271.02     0.62405      9.85167  1.00084                         14149003  942 
 272.271    0.62693     17.2242   1.2732                          14149003  943 
 273.528    0.62982     25.7842   1.55141                         14149003  944 
 274.79     0.63273     10.8455   1.20069                         14149003  945 
 276.059    0.63565      4.97798  0.69301                         14149003  946 
 277.333    0.63858      5.59585  0.7505                          14149003  947 
 278.613    0.64153      8.07631  0.99768                         14149003  948 
 279.899    0.64449      3.67565  0.64074                         14149003  949 
 281.191    0.64747      3.49857  0.77483                         14149003  950 
 282.489    0.65045      3.98399  0.79446                         14149003  951 
 283.793    0.65346      2.12643  0.57874                         14149003  952 
 285.103    0.65647      1.85292  0.43218                         14149003  953 
 286.419    0.6595       1.51827  0.46945                         14149003  954 
 287.741    0.66255      3.49062  0.60684                         14149003  955 
 289.069    0.6656       4.9254   0.70999                         14149003  956 
 290.403    0.66868      7.72328  0.88448                         14149003  957 
 291.743    0.67176      4.54491  0.83089                         14149003  958 
 293.09     0.67486      3.72009  0.74105                         14149003  959 
 294.443    0.67798      3.33037  0.55859                         14149003  960 
 295.802    0.68111      3.25232  0.54279                         14149003  961 
 297.167    0.68425      6.26127  0.77709                         14149003  962 
 298.539    0.68741     10.5605   0.9798                          14149003  963 
 299.917    0.69058     12.075    1.08207                         14149003  964 
 301.301    0.69377      2.51453  0.51646                         14149003  965 
 302.692    0.69697      1.88126  0.42073                         14149003  966 
 304.089    0.70019      2.74304  0.55507                         14149003  967 
 305.493    0.70342      1.91929  0.53002                         14149003  968 
 306.903    0.70667      3.0775   0.62996                         14149003  969 
 308.32     0.70993      4.71344  0.659                           14149003  970 
 309.743    0.71321     10.2134   1.08151                         14149003  971 
 311.172    0.7165       3.93234  0.59887                         14149003  972 
 312.609    0.71981      5.13236  0.64028                         14149003  973 
 314.052    0.72313      9.62678  0.88352                         14149003  974 
 315.501    0.72647      6.84246  0.78089                         14149003  975 
 316.958    0.72982      8.17169  0.98387                         14149003  976 
 318.421    0.73319      4.46843  0.7754                          14149003  977 
 319.89     0.73657      5.65966  0.72108                         14149003  978 
 321.367    0.73997      7.43643  0.86468                         14149003  979 
 322.85     0.74339      9.48654  0.91442                         14149003  980 
 324.34     0.74682     12.7962   1.10189                         14149003  981 
 325.838    0.75027     14.0853   1.35921                         14149003  982 
 327.342    0.75373     11.6823   1.30595                         14149003  983 
 328.853    0.75721      7.5221   1.02926                         14149003  984 
 330.37     0.76071      4.18427  0.84207                         14149003  985 
 331.895    0.76422      5.79462  0.90508                         14149003  986 
 333.427    0.76774     10.469    1.16506                         14149003  987 
 334.966    0.77129      9.11091  1.28724                         14149003  988 
 336.512    0.77485      4.5426   0.98051                         14149003  989 
 338.066    0.77842      4.71554  0.94529                         14149003  990 
 339.626    0.78202      4.28756  0.88751                         14149003  991 
 341.194    0.78563      8.39938  1.24549                         14149003  992 
 342.769    0.78925     10.2904   1.35547                         14149003  993 
 344.351    0.7929      10.5455   1.16498                         14149003  994 
 345.94     0.79656      7.33963  1.13146                         14149003  995 
 347.537    0.80023      4.41827  0.79102                         14149003  996 
 349.141    0.80393      5.71125  0.9749                          14149003  997 
 350.753    0.80764      4.65152  0.76042                         14149003  998 
 352.372    0.81137      4.82368  0.71815                         14149003  999 
 353.998    0.81511      5.20894  0.78553                         14149003 1000 
 355.632    0.81887      7.41402  0.92178                         14149003 1001 
 357.274    0.82265      6.95705  0.85154                         14149003 1002 
 358.923    0.82645      3.39813  0.69626                         14149003 1003 
 360.58     0.83026      2.47982  0.56783                         14149003 1004 
 362.244    0.8341       3.56286  0.67045                         14149003 1005 
 363.916    0.83795      4.813    0.79393                         14149003 1006 
 365.596    0.84181      3.85951  0.62327                         14149003 1007 
 367.283    0.8457       5.57208  0.80678                         14149003 1008 
 368.979    0.8496       4.92087  0.70191                         14149003 1009 
 370.682    0.85353      7.68017  0.79658                         14149003 1010 
 372.393    0.85746      6.64513  0.80325                         14149003 1011 
 374.112    0.86142      8.15792  0.91354                         14149003 1012 
 375.838    0.8654       3.6907   0.62319                         14149003 1013 
 377.573    0.86939      2.31178  0.45228                         14149003 1014 
 379.316    0.87341      3.95843  0.60255                         14149003 1015 
 381.067    0.87744      9.91165  0.92242                         14149003 1016 
 382.826    0.88149     10.0223   1.00194                         14149003 1017 
 384.593    0.88556      5.68442  0.73689                         14149003 1018 
 386.368    0.88964      5.69039  0.74621                         14149003 1019 
 388.151    0.89375      7.1942   0.76682                         14149003 1020 
 389.943    0.89788      6.47686  0.85075                         14149003 1021 
 391.743    0.90202      1.8463   0.44149                         14149003 1022 
 393.551    0.90618      2.77338  0.5172                          14149003 1023 
 395.368    0.91037      2.19439  0.53333                         14149003 1024 
 397.193    0.91457      3.43182  0.54652                         14149003 1025 
 399.026    0.91879      4.44258  0.7335                          14149003 1026 
 400.868    0.92303      3.37292  0.57201                         14149003 1027 
 402.718    0.92729      2.88956  0.50349                         14149003 1028 
 404.577    0.93157      3.52135  0.5819                          14149003 1029 
 406.444    0.93587      3.93302  0.59561                         14149003 1030 
 408.32     0.94019      3.18135  0.63025                         14149003 1031 
 410.205    0.94453      2.72556  0.56848                         14149003 1032 
 412.099    0.94889      2.72334  0.537                           14149003 1033 
 414.001    0.95327      2.75145  0.48099                         14149003 1034 
 415.912    0.95767      4.96025  0.64007                         14149003 1035 
 417.831    0.96209      5.29233  0.70017                         14149003 1036 
 419.76     0.96653      7.22722  0.81612                         14149003 1037 
 421.698    0.97099      5.6297   0.79367                         14149003 1038 
 423.644    0.97548      2.3717   0.50569                         14149003 1039 
 425.6      0.97998      5.8879   0.73616                         14149003 1040 
 427.564    0.9845       5.72483  0.77399                         14149003 1041 
 429.538    0.98905      5.69628  0.72817                         14149003 1042 
 431.52     0.99361      4.2889   0.67252                         14149003 1043 
 433.512    0.9982       3.76988  0.66421                         14149003 1044 
 435.513    1.0028       5.66112  0.80533                         14149003 1045 
 437.523    1.00743      5.32889  0.82001                         14149003 1046 
 439.543    1.01208      3.63954  0.58096                         14149003 1047 
 441.572    1.01675      5.97689  0.77252                         14149003 1048 
 443.61     1.02145      5.87719  0.89317                         14149003 1049 
 445.657    1.02616      3.33335  0.6935                          14149003 1050 
 447.714    1.0309       2.83325  0.45934                         14149003 1051 
 449.781    1.03566      4.41593  0.56725                         14149003 1052 
 451.857    1.04044      6.73099  0.83063                         14149003 1053 
 453.943    1.04524      4.65916  0.62731                         14149003 1054 
 456.038    1.05006      4.754    0.65021                         14149003 1055 
 458.143    1.05491      3.22948  0.52914                         14149003 1056 
 460.258    1.05978      4.26355  0.59092                         14149003 1057 
 462.382    1.06467      7.55593  0.76225                         14149003 1058 
 464.517    1.06959      7.08335  0.81371                         14149003 1059 
 466.661    1.07452      4.00008  0.76753                         14149003 1060 
 468.815    1.07948      3.00409  0.56056                         14149003 1061 
 470.979    1.08447      4.40271  0.64805                         14149003 1062 
 473.153    1.08947      3.70687  0.63398                         14149003 1063 
 475.336    1.0945       5.83242  0.78417                         14149003 1064 
 477.531    1.09955      4.81364  0.57676                         14149003 1065 
 479.735    1.10463      5.19154  0.62245                         14149003 1066 
 481.949    1.10973      5.79853  0.74018                         14149003 1067 
 484.174    1.11485      6.09297  0.85298                         14149003 1068 
 486.408    1.11999      3.91146  0.67677                         14149003 1069 
 488.654    1.12516      2.59913  0.53329                         14149003 1070 
 490.909    1.13036      2.64328  0.56254                         14149003 1071 
 493.175    1.13558      5.08623  0.77753                         14149003 1072 
 495.452    1.14082      4.91354  0.64437                         14149003 1073 
 497.738    1.14608      5.99639  0.73361                         14149003 1074 
ENDDATA           1049          0                                 14149003 1075 
ENDSUBENT         1074          0                                 1414900399999 
NOSUBENT      14149004   20130622                             13901414900400001 
NOSUBENT      14149005   20130622                             13901414900500001 
NOSUBENT      14149006   20130622                             13901414900600001 
SUBENT        14149007   20241001                             151514149007    1 
BIB                  6         21                                 14149007    2 
REACTION  1(92-U-235(N,ABS),,ALF)                                 14149007    3 
          2(92-U-235(N,G)92-U-236,,SIG)                           14149007    4 
ERR-ANALYS1(DATA-ERR) No information on source of uncertainty     14149007    5 
          2(DATA-ERR) Total uncertainty which could not be        14149007    6 
            separated to statistical and systematic uncertainties 14149007    7 
            because of data correlations.                         14149007    8 
           Uncertainties will be updated after publication of a   14149007    9 
            separate paper devoted to uncertainties.              14149007   10 
MONITOR    ((MONIT)92-U-235(N,G)92-U-236,,INT)                    14149007   11 
            Overall normalization constant was obtained by        14149007   12 
            cross section integral from 45 to 100 eV in           14149007   13 
            ENDF/B-VII.1 (837.8 eV*b)                             14149007   14 
          2(92-U-235(N,F),,SIG)                                   14149007   15 
            ENDF/B-VII.1 with broadening function of DANCE        14149007   16 
            obtained by SAMMY                                     14149007   17 
MONIT-REF  (,,3,ENDF/B-VII.1,,2011)                               14149007   18 
STATUS    1(TABLE) Received from Marian Jandel                    14149007   19 
          2(TABLE) Data sent by author (M.J.) corresponding to    14149007   20 
            Fig.3+4 of Phys.Rev.Lett.109(2012)202506              14149007   21 
HISTORY    (20170329C) On                                         14149007   22 
           (20240930A) MONITOR moved from sub.1                   14149007   23 
ENDBIB              21          0                                 14149007   24 
COMMON               3          3                                 14149007   25 
EN-NRM-MIN EN-NRM-MAX MONIT                                       14149007   26 
EV         EV         B*EV                                        14149007   27 
 45.0       100.0      837.8                                      14149007   28 
ENDCOMMON            3          0                                 14149007   29 
DATA                 6         66                                 14149007   30 
EN-MIN     EN-MAX     DATA      1DATA-ERR  1DATA      2DATA-ERR  214149007   31 
EV         EV         NO-DIM     NO-DIM     B          B          14149007   32 
    498.885    501.187 0.153539   0.0339893  2.61329    0.57851   14149007   33 
    501.187    512.861 0.182098   0.0160004  3.55298    0.31219   14149007   34 
    512.861    524.808 0.300176   0.0208895  4.99961    0.34793   14149007   35 
    524.808    537.031 0.395941   0.0245514  5.00055    0.31007   14149007   36 
    537.031    549.541 0.363818   0.0229871  5.28221    0.33375   14149007   37 
    549.541    562.342 0.264477   0.0242404  2.72231    0.24951   14149007   38 
    562.342    575.44  0.289062   0.0202627  4.05571    0.2843    14149007   39 
    575.44     588.844 0.338034   0.0225954  5.12371    0.34249   14149007   40 
    588.844    602.559 0.308578   0.0216098  4.88484    0.34209   14149007   41 
    602.559    616.595 0.226316   0.0206768  3.05826    0.27941   14149007   42 
    616.595    630.958 0.583998   0.0361686  4.94271    0.30612   14149007   43 
    630.958    645.654 0.834457   0.0419151  8.20161    0.41197   14149007   44 
    645.654    660.693 0.508957   0.0353536  3.73843    0.25968   14149007   45 
    660.693    676.083 0.323875   0.0230642  3.92845    0.27976   14149007   46 
    676.083    691.831 0.278325   0.0210129  4.12675    0.31156   14149007   47 
    691.831    707.946 0.279451   0.0241367  3.03716    0.26233   14149007   48 
    707.946    724.436 0.383222   0.0271948  3.86686    0.27441   14149007   49 
    724.436    741.31  0.587885   0.030148   7.34986    0.37692   14149007   50 
    741.31     758.577 0.557991   0.0337618  5.19598    0.31439   14149007   51 
    758.577    776.247 0.326445   0.0255231  3.72374    0.29114   14149007   52 
    776.247    794.328 0.350351   0.0243399  4.24022    0.29458   14149007   53 
    794.328    812.83  0.427277   0.0289711  4.45654    0.30217   14149007   54 
    812.83     831.764 0.490262   0.0386933  3.31429    0.26158   14149007   55 
    831.764    851.138 0.474517   0.0349112  3.23729    0.23817   14149007   56 
    851.138    870.963 0.466096   0.0310682  4.07577    0.27168   14149007   57 
    870.963    891.251 0.438232   0.0330316  3.35424    0.25283   14149007   58 
    891.251    912.011 0.567235   0.0357267  4.70958    0.29663   14149007   59 
    912.011    933.254 0.615776   0.0364785  5.37209    0.31824   14149007   60 
    933.254    954.993 0.571395   0.0387713  4.22382    0.2866    14149007   61 
    954.993    977.238 0.693167   0.0470133  4.2607     0.28898   14149007   62 
    977.238   1000.    0.496437   0.0360876  3.39142    0.24653   14149007   63 
   1000.      1122.02  0.564265   0.0182754  4.42334    0.14326   14149007   64 
   1122.02    1258.92  0.386765   0.0146875  3.38042    0.12837   14149007   65 
   1258.92    1412.54  0.335609   0.0147608  2.59591    0.11417   14149007   66 
   1412.54    1584.9   0.380302   0.016826   2.37602    0.10512   14149007   67 
   1584.9     1778.28  0.339617   0.015992   2.25792    0.10632   14149007   68 
   1778.28    1995.26  0.423453   0.0176779  2.68088    0.11192   14149007   69 
   1995.26    2238.72  0.462748   0.0204695  2.44318    0.10807   14149007   70 
   2238.72    2511.88  0.327196   0.0184171  1.72983    0.09737   14149007   71 
   2511.88    2818.38  0.359152   0.0192667  1.88963    0.10137   14149007   72 
   2818.38    3162.28  0.378309   0.0199235  1.84828    0.09734   14149007   73 
   3162.28    3548.13  0.399796   0.0206294  1.97268    0.10179   14149007   74 
   3548.13    3981.07  0.398878   0.021252   1.85447    0.09881   14149007   75 
   3981.07    4466.83  0.34787    0.0204963  1.55634    0.09170   14149007   76 
   4466.83    5011.87  0.40592    0.0233104  1.61451    0.09272   14149007   77 
   5011.87    5623.41  0.295593   0.0210785  1.16780    0.08327   14149007   78 
   5623.41    6309.58  0.436209   0.0282691  1.56366    0.10134   14149007   79 
   6309.58    7079.46  0.399691   0.026253   1.32518    0.08704   14149007   80 
   7079.46    7943.29  0.365252   0.0261646  1.14676    0.08215   14149007   81 
   7943.29    8912.5   0.46611    0.0303836  1.37565    0.08967   14149007   82 
   8912.5     9999.97  0.348935   0.0259274  1.05492    0.07839   14149007   83 
   9999.97   12589.3   0.397468   0.0211563  1.10672    0.05891   14149007   84 
  12589.3    15848.9   0.393536   0.0221479  1.04448    0.05878   14149007   85 
  15848.9    19952.6   0.362907   0.0224769  0.87814    0.05439   14149007   86 
  19952.6    25118.8   0.387126   0.0238307  0.86643    0.05334   14149007   87 
  25118.8    31622.7   0.367191   0.0223394  0.76678    0.04665   14149007   88 
  31622.7    39810.7   0.325162   0.0531691  0.64162    0.10492   14149007   89 
  39810.7    50118.7   0.374192   0.0311834  0.69416    0.05785   14149007   90 
  50118.7    63095.8   0.299889   0.0264954  0.53867    0.04759   14149007   91 
  63095.8    79432.8   0.339532   0.0249016  0.57786    0.04238   14149007   92 
  79432.8   100000.    0.250355   0.0514676  0.39891    0.08201   14149007   93 
 100000.    158489.    0.254941   0.0223772  0.37764    0.03315   14149007   94 
 158489.    251189.    0.245619   0.0243418  0.32912    0.03262   14149007   95 
 251189.    398107.    0.170214   0.0217391  0.20986    0.02680   14149007   96 
 398107.    630958.    0.143714   0.0270141  0.16447    0.03092   14149007   97 
 630958.   1000000.    0.109442   0.0234804  0.12408    0.02662   14149007   98 
ENDDATA             68          0                                 14149007   99 
ENDSUBENT           98          0                                 1414900799999 
ENDENTRY             7          0                                 1414999999999 
