ENTRY            14146   20130316                             13891414600000001 
SUBENT        14146001   20130316                             13891414600100001 
BIB                  9         28                                 1414600100002 
TITLE      Absolute and relative surrogate measurements of the    1414600100003 
            236U(n,f) cross section as a probe of angular         1414600100004 
            momentum effects                                      1414600100005 
AUTHOR     (B.F.Lyles, L.A.Bernstein, J.T.Burke, F.S.Dietrich,    1414600100006 
            J.Escher, I.Thompson, D.L.Bleuel, R.M.Clark, P.Fallon,1414600100007 
            J.Gibelin, A.O.Macchiavelli, M.A.McMahan, L.Phair,    1414600100008 
            E.Rodriguez-Vieitez, M.Wiedeking, C.W.Beausang,       1414600100009 
            S.R.Lesher, B.Darakchieva, M.Evtimova)                1414600100010 
INSTITUTE  (1USALRL,1USABRK)                                      1414600100011 
           (1USAUSA) University of Richmond, Richmond,  Virginia  1414600100012 
REFERENCE  (J,PR/C,76,014606,2007)                                1414600100013 
FACILITY   (CYCLO,1USABRK) 88 Inch Cyclotron at LBNL              1414600100014 
INC-SOURCE A 42 MeV 3He2+ beam. Data were taken over a period     1414600100015 
            of 8 d with beam intensity fluctuating between 2 and  1414600100016 
            3 enA (electron nano-Ampere).                         1414600100017 
SAMPLE     238U target:                                           1414600100018 
            A self-supporting metallic foil with a thickness of   1414600100019 
             4709 +/- 235 angstroms (761 +/- 38 ug/cm2).          1414600100020 
           235U target:                                           1414600100021 
             Nitrate salt of approximately 720 ug/cm2 thickness,  1414600100022 
             stippled on a 100 ug/cm2 natural carbon backing.     1414600100023 
             The isotopic composition of the target was 99.34%    1414600100024 
             235U, 0.04% 234U, and 0.62% 238U.                    1414600100025 
DETECTOR   (SIBAR) The reaction products were detected using the  1414600100026 
            Silicon Telescope Array for Reaction Studies (STARS)  1414600100027 
HISTORY    (20070711R) Received from B.F.Lyles                    1414600100028 
           (20070712C) DR                                         1414600100029 
           (20130316U) On. INSTITUTE: 1USAUSA added.              1414600100030 
ENDBIB              28          0                                 1414600100031 
NOCOMMON             0          0                                 1414600100032 
ENDSUBENT           31          0                                 1414600199999 
SUBENT        14146002   20130316                             13891414600200001 
BIB                  6          8                                 1414600200002 
REACTION   (92-U-236(N,F),,SIG,,,DERIV)                           1414600200003 
ANALYSIS   (SURGT) 238(3He,alpha+f) surrogate reaction            1414600200004 
COMMENT    Authors recommend this data set for En <3.3 MeV.       1414600200005 
ERR-ANALYS (ERR-SYS) Systematic uncertainty                       1414600200006 
STATUS     (TABLE) Author's data are given in Fig.8 of            1414600200007 
            Phys.Rev.C76(2007)014606                              1414600200008 
           (COREL,14146003) Relative surrogate technique data     1414600200009 
HISTORY    (20130316A) On. REACTION (SF9): DERIV added            1414600200010 
ENDBIB               8          0                                 1414600200011 
COMMON               2          3                                 1414600200012 
ERR-SYS    EN-ERR                                                 1414600200013 
PER-CENT   KEV                                                    1414600200014 
 7.5        210.                                                  1414600200015 
ENDCOMMON            3          0                                 1414600200016 
DATA                 2        175                                 1414600200017 
EN         DATA                                                   1414600200018 
MEV        B                                                      1414600200019 
 20.990     0.8800                                                1414600200020 
 20.870     0.8711                                                1414600200021 
 20.750     0.8897                                                1414600200022 
 20.630     0.8853                                                1414600200023 
 20.510     0.8773                                                1414600200024 
 20.390     0.9010                                                1414600200025 
 20.270     0.9208                                                1414600200026 
 20.150     0.8998                                                1414600200027 
 20.030     0.8968                                                1414600200028 
 19.910     0.9024                                                1414600200029 
 19.790     0.9377                                                1414600200030 
 19.670     0.9018                                                1414600200031 
 19.550     0.9127                                                1414600200032 
 19.430     0.9071                                                1414600200033 
 19.310     0.9179                                                1414600200034 
 19.190     0.9373                                                1414600200035 
 19.070     0.9051                                                1414600200036 
 18.950     0.9059                                                1414600200037 
 18.830     0.9132                                                1414600200038 
 18.710     0.9071                                                1414600200039 
 18.590     0.9257                                                1414600200040 
 18.470     0.8942                                                1414600200041 
 18.350     0.8778                                                1414600200042 
 18.230     0.8633                                                1414600200043 
 18.110     0.8767                                                1414600200044 
 17.990     0.8753                                                1414600200045 
 17.870     0.8408                                                1414600200046 
 17.750     0.8673                                                1414600200047 
 17.630     0.8727                                                1414600200048 
 17.510     0.8819                                                1414600200049 
 17.390     0.8952                                                1414600200050 
 17.270     0.9102                                                1414600200051 
 17.150     0.8935                                                1414600200052 
 17.030     0.9176                                                1414600200053 
 16.910     0.9124                                                1414600200054 
 16.790     0.8994                                                1414600200055 
 16.670     0.9205                                                1414600200056 
 16.550     0.9235                                                1414600200057 
 16.430     0.9022                                                1414600200058 
 16.310     0.9085                                                1414600200059 
 16.190     0.9291                                                1414600200060 
 16.070     0.9063                                                1414600200061 
 15.950     0.8920                                                1414600200062 
 15.830     0.8585                                                1414600200063 
 15.710     0.8527                                                1414600200064 
 15.590     0.8530                                                1414600200065 
 15.470     0.8410                                                1414600200066 
 15.350     0.8403                                                1414600200067 
 15.230     0.8257                                                1414600200068 
 15.110     0.8024                                                1414600200069 
 14.990     0.8103                                                1414600200070 
 14.870     0.7890                                                1414600200071 
 14.750     0.8126                                                1414600200072 
 14.630     0.8043                                                1414600200073 
 14.510     0.7998                                                1414600200074 
 14.390     0.8301                                                1414600200075 
 14.270     0.8207                                                1414600200076 
 14.150     0.8361                                                1414600200077 
 14.030     0.8155                                                1414600200078 
 13.910     0.8373                                                1414600200079 
 13.790     0.8461                                                1414600200080 
 13.670     0.8624                                                1414600200081 
 13.550     0.8899                                                1414600200082 
 13.430     0.8899                                                1414600200083 
 13.310     0.9423                                                1414600200084 
 13.190     0.9389                                                1414600200085 
 13.070     0.9275                                                1414600200086 
 12.950     0.9368                                                1414600200087 
 12.830     0.9630                                                1414600200088 
 12.710     0.9630                                                1414600200089 
 12.590     0.9445                                                1414600200090 
 12.470     0.9526                                                1414600200091 
 12.350     0.9513                                                1414600200092 
 12.230     0.9568                                                1414600200093 
 12.110     0.9972                                                1414600200094 
 11.990     0.9921                                                1414600200095 
 11.870     1.0086                                                1414600200096 
 11.750     1.0284                                                1414600200097 
 11.630     1.0189                                                1414600200098 
 11.510     1.0217                                                1414600200099 
 11.390     1.0375                                                1414600200100 
 11.270     1.0395                                                1414600200101 
 11.150     1.0706                                                1414600200102 
 11.030     1.0944                                                1414600200103 
 10.910     1.0607                                                1414600200104 
 10.790     1.0957                                                1414600200105 
 10.670     1.1202                                                1414600200106 
 10.550     1.1284                                                1414600200107 
 10.430     1.1275                                                1414600200108 
 10.310     1.1202                                                1414600200109 
 10.190     1.1251                                                1414600200110 
 10.070     1.1301                                                1414600200111 
  9.950     1.1621                                                1414600200112 
  9.830     1.1577                                                1414600200113 
  9.710     1.2013                                                1414600200114 
  9.589     1.1743                                                1414600200115 
  9.469     1.2320                                                1414600200116 
  9.349     1.2329                                                1414600200117 
  9.230     1.2270                                                1414600200118 
  9.111     1.2086                                                1414600200119 
  8.992     1.2752                                                1414600200120 
  8.871     1.2592                                                1414600200121 
  8.750     1.2520                                                1414600200122 
  8.630     1.2594                                                1414600200123 
  8.510     1.3012                                                1414600200124 
  8.390     1.2848                                                1414600200125 
  8.270     1.2484                                                1414600200126 
  8.150     1.2665                                                1414600200127 
  8.030     1.2987                                                1414600200128 
  7.910     1.2871                                                1414600200129 
  7.790     1.2331                                                1414600200130 
  7.670     1.2060                                                1414600200131 
  7.550     1.2041                                                1414600200132 
  7.430     1.2030                                                1414600200133 
  7.310     1.1785                                                1414600200134 
  7.190     1.1407                                                1414600200135 
  7.070     1.1458                                                1414600200136 
  6.950     1.1989                                                1414600200137 
  6.830     1.1272                                                1414600200138 
  6.710     1.0677                                                1414600200139 
  6.590     1.0054                                                1414600200140 
  6.470     0.9662                                                1414600200141 
  6.350     0.9122                                                1414600200142 
  6.230     0.8465                                                1414600200143 
  6.110     0.8284                                                1414600200144 
  5.990     0.8038                                                1414600200145 
  5.870     0.7864                                                1414600200146 
  5.750     0.7935                                                1414600200147 
  5.630     0.7588                                                1414600200148 
  5.510     0.7724                                                1414600200149 
  5.390     0.7686                                                1414600200150 
  5.270     0.7886                                                1414600200151 
  5.150     0.7792                                                1414600200152 
  5.030     0.7910                                                1414600200153 
  4.910     0.7884                                                1414600200154 
  4.790     0.7760                                                1414600200155 
  4.670     0.8028                                                1414600200156 
  4.550     0.8054                                                1414600200157 
  4.430     0.8255                                                1414600200158 
  4.310     0.8257                                                1414600200159 
  4.190     0.8055                                                1414600200160 
  4.070     0.8002                                                1414600200161 
  3.950     0.8391                                                1414600200162 
  3.830     0.8340                                                1414600200163 
  3.710     0.8584                                                1414600200164 
  3.590     0.8613                                                1414600200165 
  3.470     0.8770                                                1414600200166 
  3.350     0.9094                                                1414600200167 
  3.230     0.9328                                                1414600200168 
  3.110     0.9102                                                1414600200169 
  2.990     0.9105                                                1414600200170 
  2.870     0.9066                                                1414600200171 
  2.750     0.8972                                                1414600200172 
  2.630     0.9549                                                1414600200173 
  2.510     0.9615                                                1414600200174 
  2.390     0.9424                                                1414600200175 
  2.270     0.9261                                                1414600200176 
  2.150     0.9325                                                1414600200177 
  2.030     0.9066                                                1414600200178 
  1.910     0.8768                                                1414600200179 
  1.790     0.7874                                                1414600200180 
  1.670     0.7343                                                1414600200181 
  1.550     0.6581                                                1414600200182 
  1.430     0.5758                                                1414600200183 
  1.310     0.4437                                                1414600200184 
  1.190     0.3344                                                1414600200185 
  1.070     0.2177                                                1414600200186 
  0.950     0.1154                                                1414600200187 
  0.830     0.0647                                                1414600200188 
  0.710     0.0333                                                1414600200189 
  0.590     0.0183                                                1414600200190 
  0.470     0.0200                                                1414600200191 
  0.350     0.0132                                                1414600200192 
  0.230     0.0066                                                1414600200193 
  0.110     0.0095                                                1414600200194 
ENDDATA            177          0                                 1414600200195 
ENDSUBENT          194          0                                 1414600299999 
SUBENT        14146003   20130316                             13891414600300001 
BIB                  8          9                                 1414600300002 
REACTION   (92-U-236(N,F),,SIG,,,DERIV)                           1414600300003 
ANALYSIS   (SURGT) 238U(3He,a+f)/235U(3He,a+f) surrogate ratio    1414600300004 
MONITOR    (92-U-233(N,F),,SIG)                                   1414600300005 
MONIT-REF  (,,3,ENDF/B-VII.0,,2006)                               1414600300006 
COMMENT    Authors recommend this data set for En >3.3 MeV.       1414600300007 
ERR-ANALYS (ERR-SYS) Systematic uncertainty                       1414600300008 
STATUS     (TABLE) Plot in Fig.12 of Phys.Rev.C76(2007)014606     1414600300009 
           (COREL,14146002) Absolute surrogate technique data     1414600300010 
HISTORY    (20130316A) On. REACTION (SF9): DERIV added            1414600300011 
ENDBIB               9          0                                 1414600300012 
COMMON               2          3                                 1414600300013 
ERR-SYS    EN-ERR                                                 1414600300014 
PER-CENT   KEV                                                    1414600300015 
 7.3        210.                                                  1414600300016 
ENDCOMMON            3          0                                 1414600300017 
DATA                 2        169                                 1414600300018 
EN         DATA                                                   1414600300019 
MEV        B                                                      1414600300020 
 20.990     1.6503                                                1414600300021 
 20.870     1.6149                                                1414600300022 
 20.750     1.5331                                                1414600300023 
 20.630     1.5275                                                1414600300024 
 20.510     1.5841                                                1414600300025 
 20.390     1.7250                                                1414600300026 
 20.270     1.7142                                                1414600300027 
 20.150     1.6200                                                1414600300028 
 20.030     1.7212                                                1414600300029 
 19.910     1.6241                                                1414600300030 
 19.790     1.5990                                                1414600300031 
 19.670     1.6483                                                1414600300032 
 19.550     1.8016                                                1414600300033 
 19.430     1.6524                                                1414600300034 
 19.310     1.7947                                                1414600300035 
 19.190     1.7797                                                1414600300036 
 19.070     1.6256                                                1414600300037 
 18.950     1.6411                                                1414600300038 
 18.830     1.8076                                                1414600300039 
 18.710     1.5706                                                1414600300040 
 18.590     1.8204                                                1414600300041 
 18.470     1.8707                                                1414600300042 
 18.350     1.5280                                                1414600300043 
 18.230     1.5759                                                1414600300044 
 18.110     1.8388                                                1414600300045 
 17.990     1.7423                                                1414600300046 
 17.870     1.6493                                                1414600300047 
 17.750     1.7586                                                1414600300048 
 17.630     1.7473                                                1414600300049 
 17.510     1.6653                                                1414600300050 
 17.390     1.7062                                                1414600300051 
 17.270     1.7232                                                1414600300052 
 17.150     1.9662                                                1414600300053 
 17.030     1.7915                                                1414600300054 
 16.910     1.7127                                                1414600300055 
 16.790     1.6592                                                1414600300056 
 16.670     1.7964                                                1414600300057 
 16.550     1.7050                                                1414600300058 
 16.430     1.4673                                                1414600300059 
 16.310     1.8772                                                1414600300060 
 16.190     1.7617                                                1414600300061 
 16.070     1.8637                                                1414600300062 
 15.950     1.6973                                                1414600300063 
 15.830     1.6306                                                1414600300064 
 15.710     1.8450                                                1414600300065 
 15.590     1.6303                                                1414600300066 
 15.470     1.8843                                                1414600300067 
 15.350     1.8600                                                1414600300068 
 15.230     1.8161                                                1414600300069 
 15.110     1.6495                                                1414600300070 
 14.990     1.6528                                                1414600300071 
 14.870     1.5434                                                1414600300072 
 14.750     1.5461                                                1414600300073 
 14.630     1.4797                                                1414600300074 
 14.510     1.6819                                                1414600300075 
 14.390     1.5902                                                1414600300076 
 14.270     1.6016                                                1414600300077 
 14.150     1.5042                                                1414600300078 
 14.030     1.7034                                                1414600300079 
 13.910     1.5047                                                1414600300080 
 13.790     1.6434                                                1414600300081 
 13.670     1.5747                                                1414600300082 
 13.550     1.4510                                                1414600300083 
 13.430     1.4928                                                1414600300084 
 13.310     1.4893                                                1414600300085 
 13.190     1.5482                                                1414600300086 
 13.070     1.4594                                                1414600300087 
 12.950     1.3634                                                1414600300088 
 12.830     1.3408                                                1414600300089 
 12.710     1.5248                                                1414600300090 
 12.590     1.3886                                                1414600300091 
 12.470     1.3122                                                1414600300092 
 12.350     1.4697                                                1414600300093 
 12.230     1.4363                                                1414600300094 
 12.110     1.4651                                                1414600300095 
 11.990     1.5147                                                1414600300096 
 11.870     1.4341                                                1414600300097 
 11.750     1.5239                                                1414600300098 
 11.630     1.6251                                                1414600300099 
 11.510     1.3442                                                1414600300100 
 11.390     1.4283                                                1414600300101 
 11.270     1.4546                                                1414600300102 
 11.150     1.6340                                                1414600300103 
 11.030     1.5805                                                1414600300104 
 10.910     1.4829                                                1414600300105 
 10.790     1.5401                                                1414600300106 
 10.670     1.5272                                                1414600300107 
 10.550     1.4572                                                1414600300108 
 10.430     1.4218                                                1414600300109 
 10.310     1.5418                                                1414600300110 
 10.190     1.3903                                                1414600300111 
 10.070     1.5768                                                1414600300112 
  9.950     1.5879                                                1414600300113 
  9.830     1.4700                                                1414600300114 
  9.710     1.5578                                                1414600300115 
  9.589     1.4870                                                1414600300116 
  9.469     1.6733                                                1414600300117 
  9.349     1.5961                                                1414600300118 
  9.230     1.7596                                                1414600300119 
  9.111     1.6437                                                1414600300120 
  8.992     1.5655                                                1414600300121 
  8.871     1.5498                                                1414600300122 
  8.750     1.4672                                                1414600300123 
  8.630     1.5986                                                1414600300124 
  8.510     1.6397                                                1414600300125 
  8.390     1.6106                                                1414600300126 
  8.270     1.6400                                                1414600300127 
  8.150     1.4085                                                1414600300128 
  8.030     1.5429                                                1414600300129 
  7.910     1.4764                                                1414600300130 
  7.790     1.7571                                                1414600300131 
  7.670     1.5401                                                1414600300132 
  7.550     1.5342                                                1414600300133 
  7.430     1.4354                                                1414600300134 
  7.310     1.4755                                                1414600300135 
  7.190     1.3056                                                1414600300136 
  7.070     1.3299                                                1414600300137 
  6.950     1.2656                                                1414600300138 
  6.830     1.2413                                                1414600300139 
  6.710     1.2936                                                1414600300140 
  6.590     1.1851                                                1414600300141 
  6.470     1.0789                                                1414600300142 
  6.350     1.0305                                                1414600300143 
  6.230     0.9767                                                1414600300144 
  6.110     0.9246                                                1414600300145 
  5.990     0.8696                                                1414600300146 
  5.870     0.9095                                                1414600300147 
  5.750     0.8687                                                1414600300148 
  5.630     0.7809                                                1414600300149 
  5.510     0.8337                                                1414600300150 
  5.390     0.8379                                                1414600300151 
  5.270     0.9444                                                1414600300152 
  5.150     0.8477                                                1414600300153 
  5.030     0.8416                                                1414600300154 
  4.910     0.8417                                                1414600300155 
  4.790     0.8263                                                1414600300156 
  4.670     0.9114                                                1414600300157 
  4.550     0.9068                                                1414600300158 
  4.430     0.9313                                                1414600300159 
  4.310     0.9351                                                1414600300160 
  4.190     0.8227                                                1414600300161 
  4.070     0.8650                                                1414600300162 
  3.950     0.9680                                                1414600300163 
  3.830     0.9194                                                1414600300164 
  3.710     0.9008                                                1414600300165 
  3.590     0.8080                                                1414600300166 
  3.470     0.8573                                                1414600300167 
  3.350     0.8439                                                1414600300168 
  3.230     0.7971                                                1414600300169 
  3.110     0.8056                                                1414600300170 
  2.990     0.7467                                                1414600300171 
  2.870     0.7303                                                1414600300172 
  2.750     0.6673                                                1414600300173 
  2.630     0.7402                                                1414600300174 
  2.510     0.7154                                                1414600300175 
  2.390     0.7019                                                1414600300176 
  2.270     0.7038                                                1414600300177 
  2.150     0.7326                                                1414600300178 
  2.030     0.7769                                                1414600300179 
  1.910     0.7951                                                1414600300180 
  1.790     0.8228                                                1414600300181 
  1.670     0.9387                                                1414600300182 
  1.550     1.0790                                                1414600300183 
  1.430     1.1483                                                1414600300184 
  1.310     1.2355                                                1414600300185 
  1.190     1.2440                                                1414600300186 
  1.070     0.9364                                                1414600300187 
  0.950     0.7702                                                1414600300188 
  0.830     0.5626                                                1414600300189 
ENDDATA            171          0                                 1414600300190 
ENDSUBENT          189          0                                 1414600399999 
ENDENTRY             3          0                                 1414699999999 
