ENTRY            14364   20130408                             13951436400000001 
SUBENT        14364001   20130408                             13951436400100001 
BIB                 13         59                                 1436400100002 
TITLE      Precision Measurement of the 238Pu(n,gamma) cross      1436400100003 
           section                                                1436400100004 
AUTHOR     (A.Chyzh,C.Y.Wu,E.Kwan,R.A.Henderson,J.M.Gostic,       1436400100005 
           T.A.Bredeweg,A.Couture,R.C.Haight,H.Y.Lee,             1436400100006 
           J.M.O'Donnell,J.L.Ullmann)                             1436400100007 
INSTITUTE  (1USALRL,1USALAS,1USAMSU)                              1436400100008 
REFERENCE  (J,PR/C,88,044607,2013)                                1436400100009 
FACILITY   (LINAC,1USALAS) Experiment performed at Lujan Neutron  1436400100010 
           Scattering Center of LANSCE using the DANCE array      1436400100011 
DETECTOR   (BAF2) Gamma rays were measured using 4 Pi highly      1436400100012 
           segmented highly efficient gamma-ray calorimeter       1436400100013 
           DANCE. It consists of 160 BaF2 scintillation crystals, 1436400100014 
           and each one has the same solid-angle coverage. The    1436400100015 
           calorimeter has inner radius of 17 cm and each         1436400100016 
           crystal has length of 15 cm.                           1436400100017 
           (PPAC) Parallel plate avalanche counter was used to    1436400100018 
           detect fission fragments and tag the gamma rays from   1436400100019 
           fission.                                               1436400100020 
METHOD     (TOF) neutron energy determined by time of flight      1436400100021 
           method, measured by the time difference between the    1436400100022 
           beam pulse and the event detected by either DANCE or   1436400100023 
           PPAC. Two measurements were made using target with     1436400100024 
           total mass of 395 mu-g. In the second experiment target1436400100025 
           with total mass of 374 mu-g was inserted into PPAC,    1436400100026 
           which was used in an attempt to measure neutron-induced1436400100027 
           fission of 238Pu, which proved to be difficult.        1436400100028 
INC-SOURCE (SPALL) Pulsed neutron beam was produced via           1436400100029 
           spallation on a natural W target by an 800-MeV proton  1436400100030 
           linear accelerator beam. The average proton beam       1436400100031 
           current at the spallation target was about 1 - 2       1436400100032 
           mu-A. The neutron beam structure contained 625 mu-s    1436400100033 
           long 'macropulses' driven by two of every three such   1436400100034 
           macropulses from the accelerator for an average rate   1436400100035 
           of 40/s. Each macropulse consisted of 'micropulses'    1436400100036 
           spaced every 1.8 mu-s, each <1 ns long. The pulsed     1436400100037 
           beam allowed incident neutron energies to be           1436400100038 
           determined using the time-of-flight technique.         1436400100039 
SAMPLE     238Pu was fabricated at LLNL by using electroplating   1436400100040 
           cell. The target material was deposited over an area   1436400100041 
           of  approx. 7 mm in diameter on both sides of the      1436400100042 
           titanium foil with a thickness of 3 mu-m. Sample       1436400100043 
           contained also                                         1436400100044 
            239Pu - 0.30% relative to 238Pu                       1436400100045 
            240Pu - 0.34% relative to 238Pu                       1436400100046 
            234U  - (12.45+-0.11)% relative to 238Pu              1436400100047 
                    234U is daughter nucleus of 238Pu             1436400100048 
            Two samples with total mass of 395 and 374 mu-g were  1436400100049 
            used                                                  1436400100050 
MONITOR    (92-U-234(N,G),,ARE)                                   1436400100051 
            Absolute scale of the cross section was determined    1436400100052 
            according to the 234U resonance at 5.16 eV, with      1436400100053 
            integrated cross section between 4.91-5.38 eV         1436400100054 
            of 2640 beV                                           1436400100055 
MONIT-REF  (,M.B.Chadwick+,3,ENDF/B-VII.1,,2011)                  1436400100056 
ANALYSIS   Gamma rays from capture and fission were measured      1436400100057 
           simultaneously. Capture spectrum was corrected for     1436400100058 
           contribution of prompt fission gamma rays. Final       1436400100059 
           result is weighted averaged value of two measurements. 1436400100060 
HISTORY    (20131105C) Compiled by S.H.                           1436400100061 
ENDBIB              59          0                                 1436400100062 
NOCOMMON             0          0                                 1436400100063 
ENDSUBENT           62          0                                 1436400199999 
SUBENT        14364002   20130408                             13951436400200001 
BIB                  4         14                                 1436400200002 
REACTION   (94-PU-238(N,G)94-PU-239,,SIG)                         1436400200003 
STATUS     (TABLE) Data presented in fig.2b of the reference      1436400200004 
                   sent by author (A.Ch.)                         1436400200005 
SAMPLE     Pu-238 targets, with total masses of 396 and 40 mu-g.  1436400200006 
ERR-ANALYS (ERR-S) Statistical uncertainty                        1436400200007 
           (ERR-SYS,3.0,30.0) Systematic uncertainty              1436400200008 
            The systematic uncertainty is estimated to about 5%   1436400200009 
            for En below 1 eV attributed to the uncertainty of    1436400200010 
            the neutron flux measurement                          1436400200011 
            The systematic uncertainty is estimated to about 30%  1436400200012 
            for En above 10 keV attributed to the uncertainty of  1436400200013 
            the background subtraction.                           1436400200014 
            It is better than 3% for En between 1 eV and 1 keV    1436400200015 
            and better than 10% for En between 1 and 10 keV.      1436400200016 
ENDBIB              14          0                                 1436400200017 
NOCOMMON             0          0                                 1436400200018 
DATA                 4        684                                 1436400200019 
EN         EN-RSL     DATA       ERR-S                            1436400200020 
EV         EV         B          B                                1436400200021 
  0.0248996  0.0014904    490.849    3.13462                      1436400200022 
    0.19197    0.02914    103.334       1.97                      1436400200023 
   0.295382   0.054935    71.8008    1.64791                      1436400200024 
     2.1014    0.02419    2.61179    3.22191                      1436400200025 
     2.1761    0.12523    4.45592    1.54577                      1436400200026 
    2.30504    0.13265    5.95851    1.45284                      1436400200027 
    2.44163    0.14052    8.31005    1.52152                      1436400200028 
    2.60171    0.17964    15.2366    1.58969                      1436400200029 
    2.69775    0.01243    36.9898    7.89483                      1436400200030 
    2.70707    0.00623    40.9921    13.6449                      1436400200031 
    2.71331    0.00625    33.6736    11.6889                      1436400200032 
    2.71957    0.00626    48.6229     12.429                      1436400200033 
    2.72584    0.00628    44.1021    12.4142                      1436400200034 
    2.73212    0.00629    73.8267    12.3583                      1436400200035 
    2.73842     0.0063    40.1399    11.5992                      1436400200036 
    2.74473    0.00632    63.7075    13.8951                      1436400200037 
    2.75106    0.00634    57.5532    15.0805                      1436400200038 
    2.75741    0.00635    97.1125    15.5289                      1436400200039 
    2.76376    0.00636    120.544    16.9723                      1436400200040 
    2.77013    0.00638    123.915    18.9154                      1436400200041 
    2.77651    0.00639    93.0257    16.9066                      1436400200042 
    2.78292    0.00641     147.16    20.7775                      1436400200043 
    2.78933    0.00642    194.304    20.7297                      1436400200044 
    2.79576    0.00644    202.981    24.8832                      1436400200045 
     2.8022    0.00645    222.812    22.6703                      1436400200046 
    2.80866    0.00647    251.981    26.8618                      1436400200047 
    2.81514    0.00648    309.081    26.4784                      1436400200048 
    2.82163     0.0065    436.207    32.1324                      1436400200049 
    2.82813    0.00651    467.932    31.9401                      1436400200050 
    2.83465    0.00653    576.094    37.4632                      1436400200051 
    2.84119    0.00654    667.358    39.7359                      1436400200052 
    2.84774    0.00656    724.491    42.3472                      1436400200053 
    2.85431    0.00657    827.048    42.6702                      1436400200054 
    2.86089    0.00659    866.278    47.4168                      1436400200055 
    2.86748     0.0066    864.599    42.8508                      1436400200056 
    2.87409    0.00662      906.1    44.6295                      1436400200057 
    2.88072    0.00663    842.577     44.082                      1436400200058 
    2.88736    0.00665    675.105    36.4075                      1436400200059 
    2.89401    0.00666    648.324    38.5715                      1436400200060 
    2.90068    0.00668    591.723    37.3385                      1436400200061 
    2.90737     0.0067     437.94    31.3425                      1436400200062 
    2.91407    0.00671      391.3    29.5312                      1436400200063 
    2.92079    0.00672    315.043    26.2841                      1436400200064 
    2.92752    0.00674    240.279    24.0843                      1436400200065 
    2.93427    0.00676     161.12    23.2205                      1436400200066 
    2.94104    0.00677    150.202    20.5034                      1436400200067 
    2.94782    0.00679    135.692    17.5863                      1436400200068 
    2.95461     0.0068    91.6644    14.2107                      1436400200069 
    2.96142    0.00682    77.0113    14.3951                      1436400200070 
    2.96825    0.00684    55.3894     15.518                      1436400200071 
     2.9751    0.00685    53.9541    14.4214                      1436400200072 
    2.98195    0.00686    47.0213    17.7776                      1436400200073 
    2.98882    0.00688    24.8972    10.8573                      1436400200074 
    3.07727    0.17002    17.8861    1.88223                      1436400200075 
    3.25596    0.18737    5.52311    1.46616                      1436400200076 
    3.44889    0.19848    1.99361     3.1173                      1436400200077 
    3.62321    0.15015    3.67511     1.4162                      1436400200078 
    3.70254    0.00853   0.249244    2.99799                      1436400200079 
    3.90168    0.02246    0.97244    2.25759                      1436400200080 
    3.94699    0.06816    4.46539    1.86441                      1436400200081 
    4.09902     0.2359    2.87637   0.910274                      1436400200082 
     6.4965    0.37387  0.0341045   0.771781                      1436400200083 
    6.88145    0.39602    2.41901    1.09215                      1436400200084 
     7.2892    0.41948    2.80731    1.26056                      1436400200085 
    7.72111    0.44434    3.97408    1.19414                      1436400200086 
    8.17862    0.47067   0.790224   0.980521                      1436400200087 
    8.65285     0.4778    3.35577    1.20851                      1436400200088 
    8.90213    0.02076   0.111969    1.27874                      1436400200089 
    9.17656     0.5281    2.82523   0.303024                      1436400200090 
    9.46786     0.0545    8.30886   0.968924                      1436400200091 
    9.52252    0.05482    11.6097    0.99977                      1436400200092 
    9.57749    0.05513      13.87    1.08706                      1436400200093 
    9.63279    0.05545    18.8007     1.1896                      1436400200094 
    9.68839    0.05577    31.1173    1.23586                      1436400200095 
    9.74432    0.05609    50.6404    1.48424                      1436400200096 
    9.80058    0.05642     99.754    1.62968                      1436400200097 
    9.85716    0.05674    210.325    2.13084                      1436400200098 
    9.91407    0.05707     352.56    2.69644                      1436400200099 
     9.9713     0.0574    299.252    2.51464                      1436400200100 
    10.0289     0.0577    124.187    1.76393                      1436400200101 
    10.0868     0.0581    36.5038    1.17116                      1436400200102 
     10.145     0.0584    14.3394    1.05514                      1436400200103 
    10.2035     0.0587    8.77452    1.01137                      1436400200104 
    10.2625     0.0591    6.57313    1.07171                      1436400200105 
    10.4422     0.3005    3.23809   0.413135                      1436400200106 
    10.9063     0.6277    3.76407   0.293369                      1436400200107 
    11.5526     0.6648    2.06951   0.294245                      1436400200108 
    12.2371     0.7043    2.16398   0.287003                      1436400200109 
    12.9623     0.7459   0.288674   0.309066                      1436400200110 
    13.7303     0.7902    1.06619   0.289241                      1436400200111 
    14.5439      0.837    2.14595   0.296139                      1436400200112 
    15.4057     0.8865    1.50325   0.299399                      1436400200113 
    16.3184     0.9391    2.25582   0.293962                      1436400200114 
     17.083       0.59    5.12722   0.393908                      1436400200115 
    17.4282     0.1003     14.819   0.970778                      1436400200116 
    17.5288     0.1009    20.4667    1.00323                      1436400200117 
      17.63     0.1015    28.6375    1.15478                      1436400200118 
    17.7318     0.1021    38.3348    1.20285                      1436400200119 
    17.8342     0.1027     62.112    1.35421                      1436400200120 
    17.9371     0.1032    85.8882    1.54095                      1436400200121 
    18.0406     0.1039    136.444    1.79233                      1436400200122 
    18.1448     0.1044      217.3    2.16287                      1436400200123 
    18.2495     0.1051    411.755    2.85264                      1436400200124 
    18.3549     0.1056    1009.28    4.31464                      1436400200125 
    18.4609     0.1063    2126.89    6.15364                      1436400200126 
    18.5675     0.1069    1521.47    5.13968                      1436400200127 
    18.6746     0.1075    321.762    2.50741                      1436400200128 
    18.7825     0.1081    60.7806    1.45912                      1436400200129 
    18.8909     0.1087    27.3969    1.17491                      1436400200130 
    18.9999     0.1094    15.6331    1.09596                      1436400200131 
    19.1096       0.11    12.0169    1.01035                      1436400200132 
    19.2199     0.1106    8.91073    1.02277                      1436400200133 
    19.3309     0.1113    5.58526    0.98502                      1436400200134 
    19.4425     0.1119    4.36567   0.993171                      1436400200135 
    20.3166     1.6365    2.85771   0.251077                      1436400200136 
     21.761     1.2523    3.89616   0.304508                      1436400200137 
    23.0504     1.3265     1.6269    7.89491                      1436400200138 
    24.4163     1.4052    1.77989   0.300132                      1436400200139 
    25.8631     1.4884    1.76364   0.301706                      1436400200140 
    27.3956     1.5765    0.81243   0.291225                      1436400200141 
    34.9955      4.145    1.49239   0.171497                      1436400200142 
    38.4393     2.7427    1.10383   0.224457                      1436400200143 
    40.9902      2.359    2.12041   0.249326                      1436400200144 
     43.419     2.4987    1.21868   0.245866                      1436400200145 
    50.7024     1.1674    1.20238   0.362717                      1436400200146 
    51.8834     1.1946    1.35793   0.376913                      1436400200147 
    53.0919     1.2225   0.801512   0.398956                      1436400200148 
    54.3286     1.2509   0.379652   0.361787                      1436400200149 
    55.5941       1.28   0.765236   0.372016                      1436400200150 
    57.0885     1.7088    2.15433   0.346555                      1436400200151 
    58.0097     0.1335    2.47862    1.31596                      1436400200152 
    58.1433     0.1339    7.35751    1.22632                      1436400200153 
    58.2774     0.1342    6.96261    1.25668                      1436400200154 
    58.4117     0.1345    6.86857    1.31657                      1436400200155 
    58.5464     0.1348    10.3459    1.27323                      1436400200156 
    58.6813     0.1351    10.1623    1.39225                      1436400200157 
    58.8166     0.1355    14.8478    1.51246                      1436400200158 
    58.9522     0.1357    19.4157    1.58663                      1436400200159 
    59.0881     0.1361     23.101    1.52372                      1436400200160 
    59.2244     0.1363     33.935    1.58519                      1436400200161 
    59.3608     0.1367    55.1163    1.84521                      1436400200162 
    59.4977      0.137    88.4739    2.26671                      1436400200163 
    59.6349     0.1373    148.414     2.6123                      1436400200164 
    59.7724     0.1377    148.678     2.6423                      1436400200165 
    59.9102     0.1379    84.8665    2.07236                      1436400200166 
    60.0483     0.1383    23.9041    1.51496                      1436400200167 
    60.1867     0.1386    6.01505    1.25097                      1436400200168 
    60.3255     0.1389    1.81878    1.38495                      1436400200169 
    60.4645     0.1392    2.56896    1.19728                      1436400200170 
    60.6039     0.1395    1.17746    1.17358                      1436400200171 
    61.1666     0.9859    1.31488   0.445086                      1436400200172 
    62.3776     1.4362   0.989226    0.37608                      1436400200173 
    63.8306     1.4697   0.719775   0.378929                      1436400200174 
    65.3174     1.5039    1.97014   0.384224                      1436400200175 
    66.8388      1.539    3.02252   0.375121                      1436400200176 
    68.0786     0.9405    4.23281   0.532012                      1436400200177 
    68.6278      0.158    7.46091    1.28612                      1436400200178 
     68.786     0.1584    8.85647    1.27386                      1436400200179 
    68.9446     0.1588    9.02359    1.71968                      1436400200180 
    69.1035     0.1591    13.0485    1.48751                      1436400200181 
    69.2629     0.1595    19.7307    1.46878                      1436400200182 
    69.4225     0.1598    25.5527    1.59683                      1436400200183 
    69.5825     0.1603    41.3433    1.75492                      1436400200184 
     69.743     0.1605    68.0091    2.03468                      1436400200185 
    69.9037      0.161    116.557    2.40527                      1436400200186 
    70.0649     0.1613    138.517    2.68781                      1436400200187 
    70.2263     0.1617     89.678    2.44547                      1436400200188 
    70.3882     0.1621      26.72    1.66303                      1436400200189 
    70.5506     0.1625    5.04144    1.31658                      1436400200190 
    70.7132     0.1628    4.79922     1.1042                      1436400200191 
    70.8762     0.1632    2.59582    1.15563                      1436400200192 
    71.0396     0.1636    1.52542    1.15912                      1436400200193 
    71.7825     1.3222    0.33113   0.409796                      1436400200194 
    73.2873     1.6874    1.29371    0.37184                      1436400200195 
    79.5243     0.1831    5.38215    1.25343                      1436400200196 
    79.7077     0.1836    8.14048    1.41588                      1436400200197 
    79.8914     0.1839    11.6466    1.40499                      1436400200198 
    80.0756     0.1844    12.6393    1.42909                      1436400200199 
    80.2602     0.1848    16.5125    1.43327                      1436400200200 
    80.4452     0.1852    18.7562    1.44887                      1436400200201 
    80.6307     0.1857    19.8093    1.52247                      1436400200202 
    80.8166     0.1861    21.9765    1.60977                      1436400200203 
    81.0028     0.1865    29.6888    1.76307                      1436400200204 
    81.1896      0.187    34.9801    1.71566                      1436400200205 
    81.3768     0.1873    40.1613    1.96223                      1436400200206 
    81.5643     0.1878    49.0603     1.9941                      1436400200207 
    81.7524     0.1883    66.9944    1.97053                      1436400200208 
    81.9409     0.1887    86.0022    2.26571                      1436400200209 
    82.1298     0.1891    119.258    2.53499                      1436400200210 
    82.3191     0.1895    171.807     2.9192                      1436400200211 
    82.5088       0.19    276.893    3.53146                      1436400200212 
     82.699     0.1904    498.934     4.4903                      1436400200213 
    82.8897     0.1909    702.287    5.25585                      1436400200214 
    83.0807     0.1913    556.106    4.77564                      1436400200215 
    83.2722     0.1917    191.731    2.84296                      1436400200216 
    83.4642     0.1922    39.5533    1.66419                      1436400200217 
    83.6566     0.1926     11.396    1.40519                      1436400200218 
    83.8494     0.1931    8.41432    1.21301                      1436400200219 
    84.0427     0.1935    3.98048    1.37425                      1436400200220 
    84.2365      0.194    1.85674    1.24307                      1436400200221 
    84.7236     0.7803    2.21477   0.665161                      1436400200222 
    86.1051     1.9826    1.44723    0.39262                      1436400200223 
    88.1107     2.0287   0.631779   0.453464                      1436400200224 
    90.1631      2.076    2.08197   0.382759                      1436400200225 
    98.8619     2.2763    2.88418   0.397814                      1436400200226 
    101.165      2.329    1.65956   0.387971                      1436400200227 
    103.521      2.384    2.06985   0.414135                      1436400200228 
    105.933      2.439    4.83211   0.267708                      1436400200229 
    107.648      0.991    10.3483    0.74013                      1436400200230 
    108.268       0.25    15.2095    1.50346                      1436400200231 
    108.518       0.25    16.1254    1.64864                      1436400200232 
    108.768       0.25     26.847    1.69331                      1436400200233 
    109.019      0.251    37.5453    1.72261                      1436400200234 
     109.27      0.252    49.4262    1.96676                      1436400200235 
    109.522      0.252    75.5164    2.18639                      1436400200236 
    109.774      0.253    135.702    2.68378                      1436400200237 
    110.028      0.253    202.836    3.07415                      1436400200238 
    110.281      0.254    152.709    2.78607                      1436400200239 
    110.535      0.254    67.8913     2.0243                      1436400200240 
     110.79      0.255    23.6546    1.08649                      1436400200241 
    111.045      0.256    1.31847   0.404177                      1436400200242 
    111.301      0.256    6.75686   0.448007                      1436400200243 
    111.558      0.257    21.2381    1.53989                      1436400200244 
    111.815      0.258    23.6514    1.57757                      1436400200245 
    112.073      0.258    30.6989    1.81825                      1436400200246 
    112.331      0.258    37.3894    1.67088                      1436400200247 
     112.59       0.26    53.2803    2.03463                      1436400200248 
     112.85       0.26    79.9728    2.05623                      1436400200249 
     113.11       0.26    132.683    2.61089                      1436400200250 
     113.37      0.261    216.152    3.19932                      1436400200251 
    113.632      0.262    274.591    3.57379                      1436400200252 
    113.894      0.262    142.991    2.61488                      1436400200253 
    114.156      0.263    39.1912    1.83084                      1436400200254 
    114.419      0.263    13.7049     1.4802                      1436400200255 
    114.683      0.264    15.3005    1.48649                      1436400200256 
    114.947      0.265    14.8239    1.48298                      1436400200257 
    115.213      0.265    15.6999     1.6268                      1436400200258 
    115.478      0.266      19.28    1.57766                      1436400200259 
    115.745      0.267    24.9703    1.57102                      1436400200260 
    116.011      0.267    28.7665    1.55759                      1436400200261 
    116.279      0.268    29.8134    1.82285                      1436400200262 
    116.547      0.268    43.2358    1.81167                      1436400200263 
    116.816      0.269    49.8712    1.89541                      1436400200264 
    117.085       0.27    60.1873    2.00533                      1436400200265 
    117.355       0.27    80.8687    2.10102                      1436400200266 
    117.625      0.271    124.523    2.63918                      1436400200267 
    117.897      0.271     193.26    3.02454                      1436400200268 
    118.168      0.272    327.555    3.70036                      1436400200269 
    118.441      0.273    507.152     4.4046                      1436400200270 
    118.713      0.273    494.556    4.52735                      1436400200271 
    118.987      0.274    208.131    2.90178                      1436400200272 
    119.261      0.275    52.8099    1.84541                      1436400200273 
    119.537      0.275    25.0531    1.59003                      1436400200274 
    119.812      0.276    24.9741    1.51196                      1436400200275 
    120.088      0.276    28.1893    1.58542                      1436400200276 
    120.365      0.278    33.9146    1.73779                      1436400200277 
    120.643      0.277     38.833    1.90417                      1436400200278 
    120.921      0.279    51.3607    2.04184                      1436400200279 
      121.2      0.279    68.1978    2.06042                      1436400200280 
    121.479       0.28    100.004    2.40026                      1436400200281 
    121.759       0.28    172.242    3.06896                      1436400200282 
     122.04      0.281    295.469    3.80092                      1436400200283 
    122.321      0.282    413.205    4.38511                      1436400200284 
    122.603      0.282    291.219    3.77386                      1436400200285 
    122.886      0.283    81.5051    2.20914                      1436400200286 
    123.168      0.283    14.4992     1.4402                      1436400200287 
    123.453      0.285    5.16761    1.39015                      1436400200288 
    123.737      0.285    5.72874     1.2153                      1436400200289 
    124.023      0.285    1.33661    1.19879                      1436400200290 
    125.029      1.728    1.74745   0.506951                      1436400200291 
    127.359      2.932    1.48339   0.390206                      1436400200292 
    129.871      2.093    1.57391   0.507419                      1436400200293 
    131.069      0.302    1.74664    1.76376                      1436400200294 
    131.371      0.302    4.57293    1.28519                      1436400200295 
    131.674      0.304    3.33558    1.59159                      1436400200296 
    131.978      0.304     10.123    1.41869                      1436400200297 
    132.282      0.304    16.0858    1.50854                      1436400200298 
    132.587      0.305    19.9273    1.49814                      1436400200299 
    132.892      0.306    9.27144    1.51432                      1436400200300 
    133.198      0.307    3.74067    1.28954                      1436400200301 
    133.506      0.308    2.79092    1.10005                      1436400200302 
    133.814      0.308    1.35995    1.37019                      1436400200303 
    134.122      0.308    1.00741    1.46094                      1436400200304 
    134.431       0.31    4.56626    1.35417                      1436400200305 
    135.053      0.933   0.710103   0.773013                      1436400200306 
    135.988      0.939    2.53114   0.764069                      1436400200307 
    136.615      0.315    3.43552    1.39662                      1436400200308 
     136.93      0.315    5.60243    1.25463                      1436400200309 
    137.246      0.316    5.80903    1.34409                      1436400200310 
    137.562      0.317      3.452    1.44677                      1436400200311 
     137.88      0.317    5.59202    1.38281                      1436400200312 
    138.197      0.319    6.07857    1.55334                      1436400200313 
    138.517      0.319    12.7612    1.34973                      1436400200314 
    138.835      0.319    15.1525    1.52688                      1436400200315 
    139.156      0.321    25.8586    1.69437                      1436400200316 
    139.476      0.321    46.7913     1.9874                      1436400200317 
    139.798      0.322    55.3121     1.9417                      1436400200318 
     140.12      0.322    31.4207    1.73269                      1436400200319 
    140.443      0.324     9.4226    1.29581                      1436400200320 
    140.767      0.324   0.638272    1.22577                      1436400200321 
    141.091      0.325    2.11593    1.26732                      1436400200322 
    141.416      0.325    3.48838    1.24008                      1436400200323 
    141.743      0.327    1.99356    1.32948                      1436400200324 
    143.889      3.313    2.98414   0.387602                      1436400200325 
    148.423      0.342    11.5618    1.49084                      1436400200326 
    148.765      0.342    13.7922     1.5052                      1436400200327 
    149.108      0.343    17.6912    1.60335                      1436400200328 
    149.452      0.345    26.1298    1.56866                      1436400200329 
    149.796      0.344     36.126    1.76205                      1436400200330 
    150.141      0.346    53.1067    1.80154                      1436400200331 
    150.488      0.347    96.8416    2.40749                      1436400200332 
    150.834      0.347    155.059    2.81288                      1436400200333 
    151.182      0.348    180.576    3.17151                      1436400200334 
    151.531      0.349    95.3025    2.34217                      1436400200335 
     151.88       0.35    14.8447   0.914951                      1436400200336 
    152.581      0.352    1.72022   0.482833                      1436400200337 
    152.933      0.352    1.14688    3.99857                      1436400200338 
    153.286      0.353    1.85468    1.31992                      1436400200339 
    153.638      0.353    2.71336    1.38799                      1436400200340 
    154.349      1.067    1.29857   0.795071                      1436400200341 
    156.685      3.607   0.810759   0.371533                      1436400200342 
    160.335      3.692    1.74855   0.377055                      1436400200343 
     164.07      3.778    5.99758   0.401988                      1436400200344 
     166.15      0.382    11.5822    1.25466                      1436400200345 
    166.533      0.384    14.1335    1.43668                      1436400200346 
    166.917      0.384    15.8526    1.33266                      1436400200347 
    167.302      0.385     17.889    1.36841                      1436400200348 
    167.687      0.386    22.4963    1.45086                      1436400200349 
    168.073      0.387    24.7124    1.57355                      1436400200350 
    168.461      0.388    30.7265    1.63083                      1436400200351 
     168.85      0.389    38.8786    1.71417                      1436400200352 
    169.239       0.39    59.4607    1.93224                      1436400200353 
    169.629       0.39    81.1649    2.42323                      1436400200354 
     170.02      0.392     131.26    2.55194                      1436400200355 
    170.412      0.392    223.535    3.15085                      1436400200356 
    170.805      0.394    331.826    3.66322                      1436400200357 
    171.199      0.394    281.651    3.39455                      1436400200358 
    171.594      0.395    98.4047    2.17919                      1436400200359 
    171.989      0.396    20.1589    1.44285                      1436400200360 
    172.386      0.397    6.94415    1.25483                      1436400200361 
    172.783      0.398    6.10775    1.21209                      1436400200362 
    173.181      0.398    5.66941    1.21026                      1436400200363 
     173.58        0.4    6.17997    1.17842                      1436400200364 
    173.981      0.401     6.2851    1.29514                      1436400200365 
    174.382      0.401    6.81426     1.3854                      1436400200366 
    174.784      0.403    10.5824    1.18672                      1436400200367 
    175.187      0.403    11.9335    1.38881                      1436400200368 
     175.59      0.404    17.2775    1.18665                      1436400200369 
    178.855      0.412     12.286    1.43751                      1436400200370 
    179.267      0.412    15.7576    1.40553                      1436400200371 
     179.68      0.414    17.5218    1.46463                      1436400200372 
    180.094      0.415    23.9348    1.65042                      1436400200373 
     180.51      0.415    26.7266    1.53784                      1436400200374 
    180.925      0.417    37.1391    1.65859                      1436400200375 
    181.343      0.418    56.0107    1.95878                      1436400200376 
    181.761      0.418    78.0955    2.17064                      1436400200377 
     182.18       0.42    134.763    2.34694                      1436400200378 
      182.6       0.42    199.726    2.80373                      1436400200379 
     183.02      0.421    177.829    2.82232                      1436400200380 
    183.442      0.423    61.8911    1.88498                      1436400200381 
    183.865      0.423    10.8564     1.1659                      1436400200382 
     184.29      0.425    3.43674    1.25406                      1436400200383 
    184.714      0.425    5.48793    1.59507                      1436400200384 
     185.14      0.426    6.10522    1.14079                      1436400200385 
    185.567      0.427    6.48197    1.27039                      1436400200386 
    185.995      0.429    9.58752    1.30027                      1436400200387 
    186.423      0.429    12.6777    1.35061                      1436400200388 
    190.327      0.438     33.243    1.71081                      1436400200389 
    190.766      0.439    44.5307    1.96573                      1436400200390 
    191.206      0.441    68.0139    2.25812                      1436400200391 
    191.647      0.441    118.607    2.58622                      1436400200392 
    192.088      0.442    195.957    3.14854                      1436400200393 
    192.531      0.443    196.739    3.14644                      1436400200394 
    192.975      0.445    81.8585    2.08277                      1436400200395 
    193.419      0.445    15.8269    1.49086                      1436400200396 
    193.865      0.447    2.45996   0.991692                      1436400200397 
    194.312      0.447    1.98142   0.842233                      1436400200398 
     194.76      0.448    1.67925    0.91156                      1436400200399 
    195.209       0.45    2.18646    1.40694                      1436400200400 
    195.772      0.676    1.36096   0.991949                      1436400200401 
    196.676      1.132    1.55238   0.788364                      1436400200402 
    197.811      1.139    1.47534   0.801596                      1436400200403 
    198.954      1.145    3.41334   0.789957                      1436400200404 
    200.102      1.152    6.64319    0.74074                      1436400200405 
    201.257      1.159    11.7025   0.862639                      1436400200406 
    202.419      1.165    37.7305    1.02104                      1436400200407 
    203.588      1.172    15.7675   0.831043                      1436400200408 
    204.764      1.179   0.984318   0.763895                      1436400200409 
    205.946      1.185   0.384254   0.832397                      1436400200410 
    207.134      1.192    3.95796   0.707642                      1436400200411 
     208.33        1.2    1.50199   0.209616                      1436400200412 
    209.533      1.206    5.09871   0.792576                      1436400200413 
    210.743      1.213    8.49166   0.781067                      1436400200414 
    211.959       1.22    6.61504   0.874836                      1436400200415 
    213.183      1.227    10.3215   0.858283                      1436400200416 
    214.413      1.234    19.1282   0.993583                      1436400200417 
    215.651      1.242    48.2118    1.19372                      1436400200418 
    216.896      1.248    31.9459    1.13739                      1436400200419 
    218.148      1.256     19.504   0.976233                      1436400200420 
    219.407      1.263    44.9939    1.13432                      1436400200421 
    220.674       1.27    138.843    1.75518                      1436400200422 
    221.948      1.278    56.4709    1.57296                      1436400200423 
     223.23      1.285    3.24049    1.23801                      1436400200424 
    224.519      1.293     2.4934   0.958535                      1436400200425 
    225.815      1.299   0.355913   0.491659                      1436400200426 
    228.429      1.315    1.25121   0.763866                      1436400200427 
    229.748      1.322   0.160862    0.77449                      1436400200428 
    231.074       1.33    1.15351   0.792532                      1436400200429 
    232.408      1.338   0.563121   0.866802                      1436400200430 
     233.75      1.346    2.11468   0.720037                      1436400200431 
      235.1      1.353    2.17483   0.753035                      1436400200432 
    236.457      1.361    1.31047   0.807829                      1436400200433 
    237.822      1.369   0.326678  0.0902771                      1436400200434 
    239.195      1.377    3.17906   0.805764                      1436400200435 
    240.576      1.385    4.06285   0.804063                      1436400200436 
    241.964      1.393    4.41458   0.816372                      1436400200437 
    243.362      1.401    12.1074   0.920132                      1436400200438 
    244.767      1.409    28.1176    1.04263                      1436400200439 
     246.18      1.417    6.12212    0.93438                      1436400200440 
    247.601      1.425    3.69058   0.802171                      1436400200441 
     249.03      1.434    8.57564    0.76767                      1436400200442 
    250.468      1.442    18.9464    1.05253                      1436400200443 
    251.914       1.45    30.9801    1.11558                      1436400200444 
    253.368      1.458    2.53903   0.744664                      1436400200445 
    254.831      1.467   0.872308   0.433809                      1436400200446 
    256.302      1.476    2.29042   0.745094                      1436400200447 
    259.269      1.493   0.786621   0.458949                      1436400200448 
    260.767      1.501   0.913847   0.773267                      1436400200449 
    262.272       1.51    2.86727   0.700016                      1436400200450 
    263.786      1.518    1.49925   0.773523                      1436400200451 
    265.309      1.528     1.5188   0.764445                      1436400200452 
    266.841      1.536    1.39007   0.739922                      1436400200453 
    268.381      1.544   0.726434   0.780073                      1436400200454 
    271.488      1.563   0.907271   0.750936                      1436400200455 
    273.056      1.572    2.36096   0.770098                      1436400200456 
    274.632      1.581    2.67785   0.782559                      1436400200457 
    276.218       1.59    2.97997   0.454892                      1436400200458 
    277.812      1.599    4.57966   0.837778                      1436400200459 
    279.417      1.609    4.59151   0.960978                      1436400200460 
    281.029      1.617     9.1734    1.12458                      1436400200461 
    282.651      1.627    10.4373    1.27735                      1436400200462 
    284.284      1.637    18.0254    1.12644                      1436400200463 
    285.925      1.646     20.614     1.0526                      1436400200464 
    287.576      1.655    38.2153    1.16817                      1436400200465 
    289.236      1.665    66.8324    1.34724                      1436400200466 
    290.905      1.675    2.79162   0.379493                      1436400200467 
    292.585      1.684    4.94937   0.818788                      1436400200468 
    294.274      1.694    7.20217    0.88259                      1436400200469 
    295.973      1.704     9.6779   0.968569                      1436400200470 
    297.682      1.713    20.5482    1.12109                      1436400200471 
      299.4      1.724    67.2457    1.43652                      1436400200472 
    301.129      1.733    42.9117    1.30342                      1436400200473 
    302.867      1.744    5.65242   0.862053                      1436400200474 
    304.615      1.753    9.36189   0.971433                      1436400200475 
    306.374      1.764    8.36518   0.834139                      1436400200476 
    308.143      1.774    2.78642   0.404446                      1436400200477 
    309.922      1.784    3.22167   0.901632                      1436400200478 
    311.711      1.794    5.34066   0.906195                      1436400200479 
     313.51      1.805    5.61233    0.96221                      1436400200480 
    315.321      1.815    10.4875   0.916964                      1436400200481 
     317.14      1.825    19.5769     1.0334                      1436400200482 
    318.971      1.837    46.6717    1.25166                      1436400200483 
    320.813      1.846    106.727    1.68723                      1436400200484 
    322.665      1.858    24.6343    1.00916                      1436400200485 
    324.528      1.868    20.6338     1.0626                      1436400200486 
    326.401      1.879    40.5181    1.20211                      1436400200487 
    328.286      1.889    15.3877   0.971379                      1436400200488 
     330.18      1.901    1.63747   0.744703                      1436400200489 
    332.087      1.912    2.37275   0.725979                      1436400200490 
    334.004      1.922    4.72548   0.822877                      1436400200491 
    335.932      1.934    15.1542   0.928285                      1436400200492 
    337.871      1.945    12.9005   0.920127                      1436400200493 
    339.822      1.956   0.882033   0.803339                      1436400200494 
    345.742       1.99    1.84046    0.74877                      1436400200495 
    347.738      2.002    1.35656   0.797041                      1436400200496 
    351.764      2.025    1.35127   0.796776                      1436400200497 
    353.795      2.036   0.737195   0.795708                      1436400200498 
    355.837      2.049    2.52949   0.809048                      1436400200499 
    357.892       2.06    2.63464   0.580805                      1436400200500 
    359.958      2.072   0.892504   0.322004                      1436400200501 
    362.036      2.084    4.40203   0.837424                      1436400200502 
    364.126      2.096    4.51167   0.897689                      1436400200503 
    366.228      2.108    11.1215   0.908684                      1436400200504 
    368.342      2.121    30.7738    1.11641                      1436400200505 
    370.469      2.132    9.31591    0.96801                      1436400200506 
    372.608      2.145   0.082081   0.881575                      1436400200507 
    374.759      2.157    1.00976   0.812179                      1436400200508 
    379.098      2.182     1.2423   0.869024                      1436400200509 
    381.287      2.195     1.6242   0.900587                      1436400200510 
    383.488      2.208    2.04386   0.900404                      1436400200511 
    385.702       2.22    3.51783   0.946197                      1436400200512 
    387.928      2.233     6.3381   0.881934                      1436400200513 
    390.168      2.246    18.8562   0.972069                      1436400200514 
    392.421      2.259    25.1741    1.08752                      1436400200515 
    394.686      2.272    2.27819   0.895266                      1436400200516 
    396.965      2.285    2.15083   0.881783                      1436400200517 
    399.256      2.298    1.48133   0.889473                      1436400200518 
    401.561      2.312    4.34693   0.735589                      1436400200519 
     403.88      2.325    5.78339   0.804175                      1436400200520 
    406.211      2.338     10.136   0.973282                      1436400200521 
    408.556      2.352    27.7656    1.04179                      1436400200522 
    410.915      2.366    10.7301     0.8671                      1436400200523 
    413.288      2.379    4.13401   0.650301                      1436400200524 
    415.673      2.392    8.07535   0.817307                      1436400200525 
    418.072      2.407    19.2269    1.00312                      1436400200526 
    420.486      2.421    33.7463    1.08694                      1436400200527 
    422.914      2.434    9.82939   0.838863                      1436400200528 
    425.356      2.449    21.0742   0.999617                      1436400200529 
    427.811      2.462    33.1201    1.06586                      1436400200530 
     430.28      2.477    3.04341   0.747741                      1436400200531 
    432.764      2.491    1.15517   0.765323                      1436400200532 
    435.263      2.506   0.916462    1.11567                      1436400200533 
    437.776       2.52    2.13811   0.753652                      1436400200534 
    440.303      2.534   0.753643     0.4765                      1436400200535 
    442.845       2.55    4.02258   0.824433                      1436400200536 
    445.402      2.564    5.92713   0.866812                      1436400200537 
    447.973      2.578    15.7081   0.926538                      1436400200538 
    450.559      2.594    13.5742   0.925891                      1436400200539 
     453.16      2.609    6.49057   0.775638                      1436400200540 
    455.776      2.623    7.30912   0.710154                      1436400200541 
    458.408      2.639    18.4879   0.923219                      1436400200542 
    461.054      2.654    39.2359    1.06197                      1436400200543 
    463.716      2.669    27.8891   0.966617                      1436400200544 
    466.393      2.685    40.5743    1.08077                      1436400200545 
    469.085        2.7    9.20477   0.774582                      1436400200546 
    471.793      2.716    19.1632    0.94591                      1436400200547 
    474.517      2.732    17.8357   0.905308                      1436400200548 
    477.256      2.747    1.26614   0.787496                      1436400200549 
    482.783      2.779    1.24725   0.775877                      1436400200550 
     485.57      2.796    1.39813   0.720357                      1436400200551 
    488.374      2.811 0.00428452     0.1514                      1436400200552 
    491.192      2.827    4.69066   0.729738                      1436400200553 
    494.028      2.844    5.81257   0.828121                      1436400200554 
     496.88       2.86    8.84209   0.842941                      1436400200555 
    499.749      2.877    2.94525   0.827545                      1436400200556 
    502.634      2.894    3.54433   0.684345                      1436400200557 
    505.536       2.91    4.44503   0.696111                      1436400200558 
    508.454      2.927    5.65978   0.824407                      1436400200559 
    511.389      2.943    8.33825   0.752757                      1436400200560 
    514.341      2.961    14.8473   0.891026                      1436400200561 
    517.311      2.978    22.2085   0.945603                      1436400200562 
    520.297      2.995    19.7583   0.898566                      1436400200563 
    523.301      3.012    14.4794   0.918903                      1436400200564 
    526.322       3.03    3.32276   0.640179                      1436400200565 
    529.361      3.047    3.87489   0.726126                      1436400200566 
    532.417      3.065    3.62267    0.75005                      1436400200567 
     535.49      3.083    3.44097   0.766756                      1436400200568 
    538.582        3.1    8.90461   0.856809                      1436400200569 
    541.691      3.118    12.3534   0.789766                      1436400200570 
    544.818      3.137    2.69892   0.751786                      1436400200571 
    547.964      3.154    2.39705   0.391019                      1436400200572 
    551.127      3.172    2.15872   0.748289                      1436400200573 
    554.308      3.191   0.234033   0.360936                      1436400200574 
    557.509       3.21   0.951281    0.49731                      1436400200575 
    560.727      3.227    1.10479   0.454904                      1436400200576 
    563.965      3.247     2.6307   0.713647                      1436400200577 
     567.22      3.265    1.59671   0.796575                      1436400200578 
    570.495      3.284    2.48601   0.781151                      1436400200579 
    573.788      3.303     5.9905   0.687316                      1436400200580 
    577.101      3.322    8.61667   0.872409                      1436400200581 
    580.432      3.341    6.74551   0.844485                      1436400200582 
    583.784      3.361    9.38037   0.858571                      1436400200583 
    587.154       3.38    15.1499    1.00504                      1436400200584 
    590.543      3.399    12.9323    1.03682                      1436400200585 
    593.953      3.419    8.21761   0.793131                      1436400200586 
    597.381      3.439    9.75621   0.839107                      1436400200587 
    600.831      3.459   0.858367   0.833808                      1436400200588 
    604.299      3.478    2.62854   0.810565                      1436400200589 
    607.788      3.499    2.94595   0.791617                      1436400200590 
    611.297      3.519     4.5474   0.801175                      1436400200591 
    614.826      3.539    8.77055    0.82849                      1436400200592 
    618.375       3.56    6.44596   0.825024                      1436400200593 
    621.945       3.58    1.69514    0.82823                      1436400200594 
    625.535      3.601    2.18305   0.616819                      1436400200595 
    629.147      3.621    5.53482   0.783379                      1436400200596 
    632.779      3.643    10.1845   0.906451                      1436400200597 
    636.432      3.663    6.30258   0.845459                      1436400200598 
    640.106      3.685    9.74787   0.839706                      1436400200599 
    643.801      3.706    4.03201   0.688977                      1436400200600 
    647.518      3.728    1.90299   0.783772                      1436400200601 
    651.256      3.749     1.2619   0.818724                      1436400200602 
    655.016       3.77    3.56446   0.886988                      1436400200603 
    658.797      3.792    8.01654   0.866718                      1436400200604 
    662.601      3.815    13.0401   0.980068                      1436400200605 
    666.426      3.836    14.4099   0.940727                      1436400200606 
    670.273      3.858    6.68183   0.774098                      1436400200607 
    674.142      3.881    4.16209   0.910865                      1436400200608 
    678.034      3.903    10.5186   0.875312                      1436400200609 
    681.949      3.926    7.55585    0.75708                      1436400200610 
    685.886      3.948    9.60364    1.00331                      1436400200611 
    689.846      3.971    23.4844   0.933443                      1436400200612 
    693.828      3.994    14.8689    0.88339                      1436400200613 
    697.833      4.017    11.5215   0.937913                      1436400200614 
    701.862       4.04    4.90271   0.778377                      1436400200615 
    705.914      4.064    9.94384   0.921918                      1436400200616 
     709.99      4.087    17.9179    0.95728                      1436400200617 
    714.088       4.11    18.0083    1.01101                      1436400200618 
    718.211      4.135    10.1162   0.922329                      1436400200619 
    722.357      4.158   0.932052   0.856923                      1436400200620 
    726.527      4.182     3.7599   0.692493                      1436400200621 
    730.722      4.207    6.31356   0.775127                      1436400200622 
     734.94       4.23    12.4334   0.897835                      1436400200623 
    739.182      4.255     32.157    1.01395                      1436400200624 
     743.45       4.28    16.0926   0.954515                      1436400200625 
    747.742      4.304    2.47907    0.76887                      1436400200626 
    752.058      4.329     3.4584   0.809012                      1436400200627 
      756.4      4.355   0.549186   0.665472                      1436400200628 
    760.767      4.379    2.75153   0.763915                      1436400200629 
    769.577      4.431     1.8857   0.701788                      1436400200630 
    774.019      4.455    2.66455   0.786199                      1436400200631 
    778.487      4.481    6.14241   0.804689                      1436400200632 
    782.982      4.508    9.11019   0.837916                      1436400200633 
    787.503      4.533    4.63812   0.671245                      1436400200634 
    792.048      4.559    9.80663   0.826884                      1436400200635 
    796.621      4.586     12.414   0.875895                      1436400200636 
     801.22      4.612    8.61394   0.882854                      1436400200637 
    805.845      4.639    14.1433    0.89374                      1436400200638 
    810.498      4.666    10.6182   0.821191                      1436400200639 
    815.177      4.692    2.47315   0.439661                      1436400200640 
    819.883       4.72    5.07961   0.715324                      1436400200641 
    824.617      4.747     3.8399   0.798288                      1436400200642 
    829.377      4.774      6.567    0.80419                      1436400200643 
    834.165      4.802    5.47904     0.7908                      1436400200644 
    838.981      4.829    3.51832   0.696771                      1436400200645 
    843.824      4.858    3.37151    0.73076                      1436400200646 
    848.696      4.885    4.18052   0.664946                      1436400200647 
    853.595      4.914    3.25714   0.718758                      1436400200648 
    858.523      4.942     4.6282   0.691035                      1436400200649 
    863.479       4.97    7.10897   0.800002                      1436400200650 
    868.464       5.00    9.64011   0.763534                      1436400200651 
    873.478      5.028     19.695    0.90307                      1436400200652 
     878.52      5.057    14.2927   0.876984                      1436400200653 
    883.592      5.086    6.35809   0.684223                      1436400200654 
    888.693      5.116    6.39881   0.779256                      1436400200655 
    893.823      5.145    6.77953    0.78491                      1436400200656 
    898.984      5.175    2.47438   0.749982                      1436400200657 
    904.173      5.205   0.758135   0.755986                      1436400200658 
    909.393      5.235    1.04176   0.831594                      1436400200659 
    914.643      5.265    3.09115    0.75684                      1436400200660 
    919.923      5.295    2.42143   0.782906                      1436400200661 
    925.234      5.326    6.38927   0.825024                      1436400200662 
    930.576      5.357    12.6917   0.807306                      1436400200663 
    935.948      5.388    7.61659   0.828939                      1436400200664 
    941.351      5.419    3.08756   0.735217                      1436400200665 
    946.786       5.45    1.08478   0.738887                      1436400200666 
    952.252      5.482    3.23558   0.701689                      1436400200667 
     957.75      5.513    1.00761   0.677542                      1436400200668 
    963.279      5.545    1.60328   0.759638                      1436400200669 
     968.84      5.577    1.55431   0.786402                      1436400200670 
    974.433      5.609    4.88836   0.667186                      1436400200671 
    980.058      5.642    7.57246   0.737843                      1436400200672 
    985.716      5.674    8.87327   0.791019                      1436400200673 
    991.407      5.707    3.70063   0.824646                      1436400200674 
     997.13       5.74    2.14022   0.756261                      1436400200675 
    1129.47     258.93    4.84527   0.121566                      1436400200676 
    1421.91     325.96    4.21426   0.118043                      1436400200677 
    1790.08     410.37     3.3494   0.115879                      1436400200678 
    2253.57     516.63    3.88609   0.127536                      1436400200679 
    2837.09     650.39    2.36345   0.128277                      1436400200680 
    3571.68     818.79    2.26566   0.122191                      1436400200681 
    4496.47     1030.8    1.90373   0.123517                      1436400200682 
    5660.72     1297.7    1.88411    0.14396                      1436400200683 
    7126.42    1633.71     1.4516   0.136076                      1436400200684 
    8971.64    2056.72    1.12511   0.136917                      1436400200685 
    11294.6     2589.3     1.3513   0.141138                      1436400200686 
    14219.1     3259.6     1.1333   0.147821                      1436400200687 
    17900.8     4103.7    1.13462   0.147479                      1436400200688 
    22535.8     5166.3   0.822256   0.136265                      1436400200689 
    28370.8     6503.9    1.04798   0.165923                      1436400200690 
    35716.8     8187.9   0.606718   0.154542                      1436400200691 
    44964.7    10308.0    0.60298    0.17236                      1436400200692 
    56607.2    12977.0   0.517934   0.179467                      1436400200693 
    71264.2    16337.1   0.889794   0.181836                      1436400200694 
    89716.4    20567.2   0.573446   0.176478                      1436400200695 
   112946.0    25893.0   0.470704   0.187485                      1436400200696 
   142191.0    32596.0   0.529325   0.187543                      1436400200697 
   179008.0    41037.0   0.597654   0.188815                      1436400200698 
   225358.0    51663.0   0.688775   0.194293                      1436400200699 
   283708.0    65039.0   0.600355   0.196585                      1436400200700 
   357168.0    81879.0    1.46862   0.196106                      1436400200701 
   449647.0   103080.0    1.10693   0.197403                      1436400200702 
   566072.0   129770.0    1.55368   0.199057                      1436400200703 
   712642.0   163371.0    1.04511   0.205736                      1436400200704 
   897164.0   205672.0    1.28069   0.205873                      1436400200705 
ENDDATA            686          0                                 1436400200706 
ENDSUBENT          705          0                                 1436400299999 
ENDENTRY             2          0                                 1436499999999 
