ENTRY            14825   20240208                             15141482500000001 
SUBENT        14825001   20240208                             15141482500100001 
BIB                 12         47                                 1482500100002 
TITLE      Neutron Total Cross Sections of 232Th, 237Np, 235,238U,1482500100003 
            and 239Pu from 3 to 230 MeV                           1482500100004 
AUTHOR     (P.W.Lisowski,M.S.Moore,G.L.Morgan)                    1482500100005 
REFERENCE  (J,NSE,198,1901,2024)                                  1482500100006 
           #doi:10.1080/00295639.2023.2284432                     1482500100007 
INSTITUTE  (1USALAS)                                              1482500100008 
FACILITY   (LINAC,1USALAS) The Weapons Neutron Research Facility  1482500100009 
           of the Los Alamos Neutron Science Center.              1482500100010 
DETECTOR   (SCIN) The neutron detector consisted of a 10.2-cm-    1482500100011 
           diameter x 15.2-cm-thick NE-110 scintillator coupled   1482500100012 
           to the front face of an RCA 8854 photomultiplier tube. 1482500100013 
METHOD     (TOF) All measurements were performed in good          1482500100014 
           geometry on a 31.78-m flight path whose length was     1482500100015 
           determined from observation of resonances in neutron   1482500100016 
           transmission through a graphite sample. Total cross    1482500100017 
           sections were determined from the ratio of the number  1482500100018 
           of neutrons transmitted T through a sample N to the    1482500100019 
           number transmitted without a sample N0: T = N/N0 =     1482500100020 
           exp(-n*sigma), where sigma = neutron total cross       1482500100021 
           section(b), n = number of atoms per barn in the sample.1482500100022 
ANALYSIS   After correcting all spectra for dead-time losses, a   1482500100023 
           normalized background spectrum was subtracted from     1482500100024 
           both sample-in and sample-out data. A small residual   1482500100025 
           time-uncorrelated background, typically less than 1%,  1482500100026 
           of the counts in each energy bin was also subtracted.  1482500100027 
           Data for individual time channels used the difference  1482500100028 
           between neutron detection and the prompt-gamma-ray     1482500100029 
           signal to determine the neutron energy using           1482500100030 
           relativistic equations. The time-of-flight results     1482500100031 
           were combined into bins of approximately 2.5% or 5%    1482500100032 
           energy resolution and converted to total cross         1482500100033 
           sections as a function of neutron energy.              1482500100034 
ERR-ANALYS The uncertainty in the total cross section dsigma was  1482500100035 
           then calculated for each energy bin from dsigma =      1482500100036 
           dT/(n*T) .                                             1482500100037 
           (ERR-S) Contributions from the statistical             1482500100038 
           uncertainties in N and N0 as well as background error  1482500100039 
           and monitor uncertainty were included in the usual way.1482500100040 
           (ERR-SYS,.5,.7) Based on our analysis of relative      1482500100041 
           fluctuations in system counting rates for the same     1482500100042 
           samples over multiple data sets, the well determined   1482500100043 
           value of n (atoms/barn) , and the small backgrounds,   1482500100044 
           we estimate the systematic uncertainties to be         1482500100045 
           between 0.5-0.7%.                                      1482500100046 
CORRECTION Dead-time losses.                                      1482500100047 
STATUS     (APRVD) Approved by P.W.Lisowski on 02/23/2024.        1482500100048 
HISTORY    (20240208C) BP                                         1482500100049 
ENDBIB              47          0                                 1482500100050 
NOCOMMON             0          0                                 1482500100051 
ENDSUBENT           50          0                                 1482500199999 
SUBENT        14825002   20240208                             15141482500200001 
BIB                  3          6                                 1482500200002 
REACTION   (90-TH-232(N,TOT),,SIG)                                1482500200003 
SAMPLE     Natural thorium:diameter - 1.905 cm, length - 6.985 cm,1482500200004 
            n - 0.2135 atoms/b.                                   1482500200005 
STATUS     (TABLE,,P.W.Lisowski+,J,NSE,198,1901,2024)             1482500200006 
           Authors data. Also shown in Fig. 1, page 5 of          1482500200007 
           J,NSE,198,1901,2024.                                   1482500200008 
ENDBIB               6          0                                 1482500200009 
NOCOMMON             0          0                                 1482500200010 
DATA                 3         86                                 1482500200011 
EN         DATA       ERR-S                                       1482500200012 
MEV        B          B                                           1482500200013 
      3.297     8.0251     0.0175                                 1482500200014 
      3.467     8.0620     0.0169                                 1482500200015 
      3.644     8.0611     0.0161                                 1482500200016 
      3.831     8.0651     0.0154                                 1482500200017 
      4.028     7.9649     0.0145                                 1482500200018 
      4.234     7.9698     0.0142                                 1482500200019 
      4.451     7.9013     0.0139                                 1482500200020 
      4.679     7.7657     0.0134                                 1482500200021 
      4.919     7.6982     0.0131                                 1482500200022 
      5.171     7.6034     0.0130                                 1482500200023 
      5.437     7.4432     0.0131                                 1482500200024 
      5.715     7.3047     0.0128                                 1482500200025 
      6.008     7.1426     0.0129                                 1482500200026 
      6.316     6.9725     0.0130                                 1482500200027 
      6.640     6.8015     0.0127                                 1482500200028 
      6.981     6.6404     0.0126                                 1482500200029 
      7.339     6.4853     0.0131                                 1482500200030 
      7.715     6.3624     0.0136                                 1482500200031 
      8.110     6.2060     0.0135                                 1482500200032 
      8.526     6.1076     0.0134                                 1482500200033 
      8.963     6.0045     0.0139                                 1482500200034 
      9.423     5.9098     0.0142                                 1482500200035 
      9.906     5.8123     0.0144                                 1482500200036 
     10.410     5.7943     0.0148                                 1482500200037 
     10.950     5.7568     0.0157                                 1482500200038 
     11.510     5.7439     0.0159                                 1482500200039 
     12.100     5.7223     0.0168                                 1482500200040 
     12.720     5.7754     0.0173                                 1482500200041 
     13.370     5.8063     0.0178                                 1482500200042 
     14.060     5.8782     0.0182                                 1482500200043 
     14.780     5.9268     0.0190                                 1482500200044 
     15.540     5.9812     0.0194                                 1482500200045 
     16.330     6.0644     0.0195                                 1482500200046 
     17.170     6.0732     0.0194                                 1482500200047 
     18.050     6.1432     0.0198                                 1482500200048 
     18.980     6.2011     0.0199                                 1482500200049 
     19.950     6.2551     0.0197                                 1482500200050 
     20.970     6.2529     0.0199                                 1482500200051 
     22.050     6.2060     0.0197                                 1482500200052 
     23.180     6.1801     0.0197                                 1482500200053 
     24.360     6.1091     0.0199                                 1482500200054 
     25.610     6.0662     0.0197                                 1482500200055 
     26.930     5.9592     0.0200                                 1482500200056 
     28.310     5.8613     0.0197                                 1482500200057 
     29.760     5.7294     0.0194                                 1482500200058 
     31.290     5.6154     0.0200                                 1482500200059 
     32.890     5.4236     0.0192                                 1482500200060 
     34.580     5.3077     0.0194                                 1482500200061 
     36.350     5.1868     0.0197                                 1482500200062 
     38.210     5.0519     0.0194                                 1482500200063 
     40.170     5.0010     0.0192                                 1482500200064 
     42.230     4.9151     0.0197                                 1482500200065 
     44.400     4.8463     0.0202                                 1482500200066 
     46.670     4.8224     0.0202                                 1482500200067 
     49.070     4.7956     0.0208                                 1482500200068 
     51.580     4.7958     0.0209                                 1482500200069 
     54.230     4.8319     0.0217                                 1482500200070 
     57.010     4.9041     0.0226                                 1482500200071 
     59.930     4.9472     0.0228                                 1482500200072 
     63.000     5.0304     0.0237                                 1482500200073 
     66.230     5.1036     0.0238                                 1482500200074 
     69.630     5.1487     0.0250                                 1482500200075 
     73.200     5.1879     0.0260                                 1482500200076 
     76.950     5.2090     0.0260                                 1482500200077 
     80.890     5.2481     0.0272                                 1482500200078 
     85.040     5.2923     0.0285                                 1482500200079 
     89.400     5.2524     0.0282                                 1482500200080 
     93.990     5.1556     0.0294                                 1482500200081 
     98.800     5.0997     0.0305                                 1482500200082 
    103.900     5.0388     0.0302                                 1482500200083 
    109.200     4.9169     0.0315                                 1482500200084 
    114.800     4.7230     0.0329                                 1482500200085 
    120.700     4.6421     0.0344                                 1482500200086 
    126.900     4.5302     0.0340                                 1482500200087 
    133.400     4.3382     0.0356                                 1482500200088 
    140.200     4.1513     0.0373                                 1482500200089 
    147.400     3.9994     0.0371                                 1482500200090 
    155.000     3.9885     0.0396                                 1482500200091 
    162.900     3.8865     0.0425                                 1482500200092 
    171.300     3.6446     0.0458                                 1482500200093 
    180.000     3.6126     0.0457                                 1482500200094 
    189.300     3.6656     0.0539                                 1482500200095 
    199.000     3.3976     0.0548                                 1482500200096 
    209.200     3.3167     0.0560                                 1482500200097 
    219.900     3.2667     0.0682                                 1482500200098 
    231.200     3.3847     0.0709                                 1482500200099 
ENDDATA             88          0                                 1482500200100 
ENDSUBENT           99          0                                 1482500299999 
SUBENT        14825003   20240208                             15141482500300001 
BIB                  3          6                                 1482500300002 
REACTION   (93-NP-237(N,TOT),,SIG)                                1482500300003 
SAMPLE     (93-NP-237,ENR=0.999) Diameter - 1.746 cm, length -    1482500300004 
           5.000 cm, n - 0.2603 atoms/b.                          1482500300005 
STATUS     (TABLE,,P.W.Lisowski+,J,NSE,198,1901,2024)             1482500300006 
           Authors data. Also shown in Fig. 5, page 7 of          1482500300007 
           J,NSE,198,1901,2024.                                   1482500300008 
ENDBIB               6          0                                 1482500300009 
NOCOMMON             0          0                                 1482500300010 
DATA                 3        175                                 1482500300011 
EN         DATA       ERR-S                                       1482500300012 
MEV        B          B                                           1482500300013 
      3.158     7.7524     0.0319                                 1482500300014 
      3.237     7.7529     0.0315                                 1482500300015 
      3.318     7.8103     0.0310                                 1482500300016 
      3.401     7.7761     0.0302                                 1482500300017 
      3.486     7.8486     0.0298                                 1482500300018 
      3.573     7.8638     0.0292                                 1482500300019 
      3.663     7.8808     0.0285                                 1482500300020 
      3.754     7.8341     0.0278                                 1482500300021 
      3.848     7.8528     0.0271                                 1482500300022 
      3.944     7.8406     0.0265                                 1482500300023 
      4.043     7.8608     0.0259                                 1482500300024 
      4.144     7.7998     0.0255                                 1482500300025 
      4.248     7.7890     0.0250                                 1482500300026 
      4.354     7.7631     0.0248                                 1482500300027 
      4.463     7.7227     0.0243                                 1482500300028 
      4.574     7.6534     0.0240                                 1482500300029 
      4.689     7.7027     0.0240                                 1482500300030 
      4.806     7.6430     0.0238                                 1482500300031 
      4.926     7.5914     0.0236                                 1482500300032 
      5.049     7.5440     0.0236                                 1482500300033 
      5.175     7.4975     0.0235                                 1482500300034 
      5.305     7.3853     0.0233                                 1482500300035 
      5.437     7.3557     0.0235                                 1482500300036 
      5.573     7.2486     0.0233                                 1482500300037 
      5.713     7.1725     0.0234                                 1482500300038 
      5.855     7.1256     0.0234                                 1482500300039 
      6.002     7.0652     0.0234                                 1482500300040 
      6.152     6.9927     0.0234                                 1482500300041 
      6.306     6.9124     0.0239                                 1482500300042 
      6.463     6.8268     0.0236                                 1482500300043 
      6.625     6.7998     0.0234                                 1482500300044 
      6.790     6.6658     0.0234                                 1482500300045 
      6.960     6.5911     0.0235                                 1482500300046 
      7.134     6.4731     0.0235                                 1482500300047 
      7.313     6.5054     0.0240                                 1482500300048 
      7.495     6.4089     0.0245                                 1482500300049 
      7.683     6.3211     0.0249                                 1482500300050 
      7.875     6.2830     0.0252                                 1482500300051 
      8.072     6.2414     0.0252                                 1482500300052 
      8.273     6.1277     0.0250                                 1482500300053 
      8.480     6.0915     0.0251                                 1482500300054 
      8.692     6.0322     0.0254                                 1482500300055 
      8.910     5.9739     0.0257                                 1482500300056 
      9.132     5.9681     0.0264                                 1482500300057 
      9.361     5.8986     0.0268                                 1482500300058 
      9.595     5.8270     0.0269                                 1482500300059 
      9.835     5.8358     0.0272                                 1482500300060 
     10.080     5.8321     0.0277                                 1482500300061 
     10.330     5.7906     0.0282                                 1482500300062 
     10.590     5.7304     0.0287                                 1482500300063 
     10.860     5.6817     0.0295                                 1482500300064 
     11.130     5.7401     0.0301                                 1482500300065 
     11.410     5.7487     0.0307                                 1482500300066 
     11.690     5.7227     0.0313                                 1482500300067 
     11.980     5.6351     0.0321                                 1482500300068 
     12.280     5.6655     0.0327                                 1482500300069 
     12.590     5.6815     0.0332                                 1482500300070 
     12.900     5.6797     0.0339                                 1482500300071 
     13.230     5.7215     0.0345                                 1482500300072 
     13.560     5.7105     0.0350                                 1482500300073 
     13.900     5.7006     0.0356                                 1482500300074 
     14.240     5.7804     0.0364                                 1482500300075 
     14.600     5.7716     0.0369                                 1482500300076 
     14.960     5.7485     0.0372                                 1482500300077 
     15.340     5.8108     0.0380                                 1482500300078 
     15.720     5.8902     0.0386                                 1482500300079 
     16.110     5.9632     0.0390                                 1482500300080 
     16.520     5.9584     0.0392                                 1482500300081 
     16.930     5.9172     0.0391                                 1482500300082 
     17.350     6.0124     0.0395                                 1482500300083 
     17.790     6.0607     0.0397                                 1482500300084 
     18.230     6.0218     0.0397                                 1482500300085 
     18.690     6.1633     0.0404                                 1482500300086 
     19.160     6.0512     0.0406                                 1482500300087 
     19.630     6.1186     0.0403                                 1482500300088 
     20.130     6.1165     0.0406                                 1482500300089 
     20.630     6.0794     0.0403                                 1482500300090 
     21.140     6.1092     0.0406                                 1482500300091 
     21.670     6.0683     0.0408                                 1482500300092 
     22.210     6.1045     0.0411                                 1482500300093 
     22.770     6.0910     0.0411                                 1482500300094 
     23.340     6.0438     0.0411                                 1482500300095 
     23.920     6.0702     0.0413                                 1482500300096 
     24.520     6.0676     0.0415                                 1482500300097 
     25.130     5.9449     0.0415                                 1482500300098 
     25.760     5.9378     0.0417                                 1482500300099 
     26.410     5.9312     0.0418                                 1482500300100 
     27.070     5.8859     0.0416                                 1482500300101 
     27.740     5.8488     0.0420                                 1482500300102 
     28.440     5.7179     0.0415                                 1482500300103 
     29.150     5.6993     0.0418                                 1482500300104 
     29.880     5.6044     0.0417                                 1482500300105 
     30.620     5.5694     0.0414                                 1482500300106 
     31.390     5.5357     0.0418                                 1482500300107 
     32.170     5.4530     0.0417                                 1482500300108 
     32.980     5.3926     0.0412                                 1482500300109 
     33.800     5.3240     0.0417                                 1482500300110 
     34.650     5.2460     0.0415                                 1482500300111 
     35.510     5.2124     0.0414                                 1482500300112 
     36.400     5.1352     0.0417                                 1482500300113 
     37.310     5.0840     0.0416                                 1482500300114 
     38.240     4.9346     0.0416                                 1482500300115 
     39.200     4.8751     0.0415                                 1482500300116 
     40.180     4.8677     0.0419                                 1482500300117 
     41.180     4.8579     0.0424                                 1482500300118 
     42.210     4.8408     0.0425                                 1482500300119 
     43.270     4.7686     0.0428                                 1482500300120 
     44.350     4.7073     0.0431                                 1482500300121 
     45.460     4.7666     0.0436                                 1482500300122 
     46.600     4.7551     0.0439                                 1482500300123 
     47.760     4.7026     0.0444                                 1482500300124 
     48.960     4.7470     0.0448                                 1482500300125 
     50.180     4.7069     0.0455                                 1482500300126 
     51.430     4.7373     0.0457                                 1482500300127 
     52.720     4.7523     0.0467                                 1482500300128 
     54.040     4.7785     0.0473                                 1482500300129 
     55.390     4.8214     0.0479                                 1482500300130 
     56.770     4.8114     0.0487                                 1482500300131 
     58.190     4.8681     0.0496                                 1482500300132 
     59.650     4.9669     0.0505                                 1482500300133 
     61.140     4.9390     0.0510                                 1482500300134 
     62.670     4.9402     0.0522                                 1482500300135 
     64.230     4.8824     0.0530                                 1482500300136 
     65.840     5.0386     0.0538                                 1482500300137 
     67.490     5.1325     0.0547                                 1482500300138 
     69.170     5.1065     0.0562                                 1482500300139 
     70.900     5.1165     0.0567                                 1482500300140 
     72.680     5.1598     0.0578                                 1482500300141 
     74.490     5.2117     0.0592                                 1482500300142 
     76.350     5.3056     0.0597                                 1482500300143 
     78.260     5.2235     0.0612                                 1482500300144 
     80.220     5.2212     0.0618                                 1482500300145 
     82.230     5.1378     0.0621                                 1482500300146 
     84.280     5.2050     0.0631                                 1482500300147 
     86.390     5.1821     0.0650                                 1482500300148 
     88.550     5.2704     0.0659                                 1482500300149 
     90.760     5.2256     0.0672                                 1482500300150 
     93.030     5.1840     0.0672                                 1482500300151 
     95.360     5.1712     0.0680                                 1482500300152 
     97.740     5.0567     0.0694                                 1482500300153 
    100.200     5.1130     0.0700                                 1482500300154 
    102.700     5.0458     0.0713                                 1482500300155 
    105.300     4.9922     0.0720                                 1482500300156 
    107.900     4.9583     0.0726                                 1482500300157 
    110.600     4.8579     0.0735                                 1482500300158 
    113.300     4.8746     0.0744                                 1482500300159 
    116.200     4.7299     0.0747                                 1482500300160 
    119.100     4.6849     0.0767                                 1482500300161 
    122.100     4.7246     0.0780                                 1482500300162 
    125.100     4.5407     0.0798                                 1482500300163 
    128.200     4.5697     0.0813                                 1482500300164 
    131.400     4.3643     0.0817                                 1482500300165 
    134.700     4.3451     0.0838                                 1482500300166 
    138.100     4.3694     0.0845                                 1482500300167 
    141.600     4.1957     0.0864                                 1482500300168 
    145.100     4.1484     0.0889                                 1482500300169 
    148.700     4.0799     0.0906                                 1482500300170 
    152.400     4.0424     0.0923                                 1482500300171 
    156.300     4.0179     0.0945                                 1482500300172 
    160.200     3.8439     0.0966                                 1482500300173 
    164.200     3.6985     0.0990                                 1482500300174 
    168.300     3.6122     0.1008                                 1482500300175 
    172.500     3.7203     0.1066                                 1482500300176 
    176.800     3.7380     0.1082                                 1482500300177 
    181.200     3.6411     0.1133                                 1482500300178 
    185.700     3.6030     0.1162                                 1482500300179 
    190.400     3.5448     0.1201                                 1482500300180 
    195.100     3.5971     0.1273                                 1482500300181 
    200.000     3.6348     0.1342                                 1482500300182 
    205.000     3.3776     0.1375                                 1482500300183 
    210.100     3.1519     0.1459                                 1482500300184 
    215.400     3.4956     0.1571                                 1482500300185 
    220.800     3.2463     0.1623                                 1482500300186 
    226.300     3.3861     0.1711                                 1482500300187 
    232.000     3.5870     0.1841                                 1482500300188 
ENDDATA            177          0                                 1482500300189 
ENDSUBENT          188          0                                 1482500399999 
SUBENT        14825004   20240208                             15141482500400001 
BIB                  3          9                                 1482500400002 
REACTION   (92-U-235(N,TOT),,SIG)                                 1482500400003 
SAMPLE     (92-U-235,ENR=0.932)                                   1482500400004 
           (92-U-238,ENR=0.054)                                   1482500400005 
           (92-U-234,ENR=0.01)                                    1482500400006 
           (92-U-236,ENR=0.004) Diameter - 1.906 cm, length -     1482500400007 
           4.447 cm, n - 0.2136 b/atom.                           1482500400008 
STATUS     (TABLE,,P.W.Lisowski+,J,NSE,198,1901,2024)             1482500400009 
           Authors data. Also shown in Fig. 3, page 6 of          1482500400010 
           J,NSE,198,1901,2024.                                   1482500400011 
ENDBIB               9          0                                 1482500400012 
NOCOMMON             0          0                                 1482500400013 
DATA                 3        175                                 1482500400014 
EN         DATA       ERR-S                                       1482500400015 
MEV        B          B                                           1482500400016 
      3.158     7.9069     0.0363                                 1482500400017 
      3.237     7.8178     0.0355                                 1482500400018 
      3.318     7.8477     0.0348                                 1482500400019 
      3.401     7.8568     0.0341                                 1482500400020 
      3.486     7.8693     0.0336                                 1482500400021 
      3.573     7.9239     0.0329                                 1482500400022 
      3.663     7.8970     0.0320                                 1482500400023 
      3.754     7.8960     0.0313                                 1482500400024 
      3.848     7.9162     0.0305                                 1482500400025 
      3.944     7.8993     0.0298                                 1482500400026 
      4.043     7.9099     0.0293                                 1482500400027 
      4.144     7.8656     0.0288                                 1482500400028 
      4.248     7.8517     0.0283                                 1482500400029 
      4.354     7.8675     0.0281                                 1482500400030 
      4.463     7.7776     0.0276                                 1482500400031 
      4.574     7.8135     0.0275                                 1482500400032 
      4.689     7.7470     0.0272                                 1482500400033 
      4.806     7.7001     0.0270                                 1482500400034 
      4.926     7.6328     0.0269                                 1482500400035 
      5.049     7.5827     0.0269                                 1482500400036 
      5.175     7.5517     0.0269                                 1482500400037 
      5.305     7.4274     0.0266                                 1482500400038 
      5.437     7.3982     0.0268                                 1482500400039 
      5.573     7.3658     0.0268                                 1482500400040 
      5.713     7.2597     0.0268                                 1482500400041 
      5.855     7.1562     0.0267                                 1482500400042 
      6.002     7.0979     0.0269                                 1482500400043 
      6.152     7.0449     0.0270                                 1482500400044 
      6.306     6.8914     0.0275                                 1482500400045 
      6.463     6.8672     0.0271                                 1482500400046 
      6.625     6.7885     0.0270                                 1482500400047 
      6.790     6.7122     0.0271                                 1482500400048 
      6.960     6.6194     0.0271                                 1482500400049 
      7.134     6.5351     0.0274                                 1482500400050 
      7.313     6.4794     0.0280                                 1482500400051 
      7.495     6.4063     0.0285                                 1482500400052 
      7.683     6.3522     0.0291                                 1482500400053 
      7.875     6.3205     0.0294                                 1482500400054 
      8.072     6.1987     0.0293                                 1482500400055 
      8.273     6.0704     0.0290                                 1482500400056 
      8.480     6.0471     0.0292                                 1482500400057 
      8.692     5.9769     0.0295                                 1482500400058 
      8.910     5.9257     0.0300                                 1482500400059 
      9.132     5.9232     0.0310                                 1482500400060 
      9.361     5.8693     0.0313                                 1482500400061 
      9.595     5.8468     0.0314                                 1482500400062 
      9.835     5.8456     0.0321                                 1482500400063 
     10.080     5.7263     0.0324                                 1482500400064 
     10.330     5.7358     0.0330                                 1482500400065 
     10.590     5.7283     0.0338                                 1482500400066 
     10.860     5.7314     0.0347                                 1482500400067 
     11.130     5.7073     0.0353                                 1482500400068 
     11.410     5.6855     0.0361                                 1482500400069 
     11.690     5.6586     0.0368                                 1482500400070 
     11.980     5.7099     0.0379                                 1482500400071 
     12.280     5.6658     0.0386                                 1482500400072 
     12.590     5.7162     0.0393                                 1482500400073 
     12.900     5.7589     0.0401                                 1482500400074 
     13.230     5.7602     0.0407                                 1482500400075 
     13.560     5.7264     0.0412                                 1482500400076 
     13.900     5.7193     0.0419                                 1482500400077 
     14.240     5.7745     0.0428                                 1482500400078 
     14.600     5.7989     0.0433                                 1482500400079 
     14.960     5.9143     0.0441                                 1482500400080 
     15.340     5.8665     0.0448                                 1482500400081 
     15.720     5.8471     0.0452                                 1482500400082 
     16.110     5.9699     0.0458                                 1482500400083 
     16.520     5.9535     0.0458                                 1482500400084 
     16.930     5.9628     0.0459                                 1482500400085 
     17.350     6.0995     0.0461                                 1482500400086 
     17.790     6.0555     0.0463                                 1482500400087 
     18.230     6.0643     0.0467                                 1482500400088 
     18.690     6.1292     0.0471                                 1482500400089 
     19.160     6.0680     0.0475                                 1482500400090 
     19.630     6.1242     0.0471                                 1482500400091 
     20.130     6.0877     0.0468                                 1482500400092 
     20.630     6.0911     0.0472                                 1482500400093 
     21.140     6.1527     0.0473                                 1482500400094 
     21.670     6.1052     0.0475                                 1482500400095 
     22.210     6.1680     0.0478                                 1482500400096 
     22.770     6.0862     0.0482                                 1482500400097 
     23.340     6.0268     0.0480                                 1482500400098 
     23.920     6.1183     0.0483                                 1482500400099 
     24.520     6.0377     0.0484                                 1482500400100 
     25.130     5.9890     0.0488                                 1482500400101 
     25.760     5.9725     0.0486                                 1482500400102 
     26.410     5.9654     0.0489                                 1482500400103 
     27.070     5.7576     0.0486                                 1482500400104 
     27.740     5.8049     0.0489                                 1482500400105 
     28.440     5.7109     0.0489                                 1482500400106 
     29.150     5.6900     0.0490                                 1482500400107 
     29.880     5.6313     0.0491                                 1482500400108 
     30.620     5.5718     0.0491                                 1482500400109 
     31.390     5.4806     0.0488                                 1482500400110 
     32.170     5.3538     0.0487                                 1482500400111 
     32.980     5.3988     0.0490                                 1482500400112 
     33.800     5.2573     0.0488                                 1482500400113 
     34.650     5.3004     0.0490                                 1482500400114 
     35.510     5.1906     0.0491                                 1482500400115 
     36.400     5.1681     0.0492                                 1482500400116 
     37.310     5.1415     0.0494                                 1482500400117 
     38.240     4.9729     0.0492                                 1482500400118 
     39.200     4.9102     0.0496                                 1482500400119 
     40.180     4.8884     0.0499                                 1482500400120 
     41.180     4.7986     0.0497                                 1482500400121 
     42.210     4.8276     0.0503                                 1482500400122 
     43.270     4.8689     0.0513                                 1482500400123 
     44.350     4.8795     0.0514                                 1482500400124 
     45.460     4.7813     0.0517                                 1482500400125 
     46.600     4.7502     0.0521                                 1482500400126 
     47.760     4.7089     0.0527                                 1482500400127 
     48.960     4.7109     0.0536                                 1482500400128 
     50.180     4.6345     0.0543                                 1482500400129 
     51.430     4.7091     0.0549                                 1482500400130 
     52.720     4.7858     0.0557                                 1482500400131 
     54.040     4.7559     0.0563                                 1482500400132 
     55.390     4.7812     0.0573                                 1482500400133 
     56.770     4.8164     0.0584                                 1482500400134 
     58.190     4.8720     0.0594                                 1482500400135 
     59.650     4.8857     0.0601                                 1482500400136 
     61.140     4.9264     0.0612                                 1482500400137 
     62.670     4.9657     0.0622                                 1482500400138 
     64.230     4.8928     0.0630                                 1482500400139 
     65.840     5.0854     0.0644                                 1482500400140 
     67.490     4.9727     0.0648                                 1482500400141 
     69.170     5.0516     0.0663                                 1482500400142 
     70.900     5.1517     0.0677                                 1482500400143 
     72.680     5.1045     0.0689                                 1482500400144 
     74.490     5.1313     0.0700                                 1482500400145 
     76.350     5.0941     0.0712                                 1482500400146 
     78.260     5.2643     0.0724                                 1482500400147 
     80.220     5.2829     0.0742                                 1482500400148 
     82.230     5.2561     0.0751                                 1482500400149 
     84.280     5.2971     0.0770                                 1482500400150 
     86.390     5.1944     0.0773                                 1482500400151 
     88.550     5.1167     0.0785                                 1482500400152 
     90.760     5.1279     0.0789                                 1482500400153 
     93.030     5.1985     0.0807                                 1482500400154 
     95.360     5.1704     0.0817                                 1482500400155 
     97.740     4.9866     0.0828                                 1482500400156 
    100.200     5.2207     0.0842                                 1482500400157 
    102.700     5.0354     0.0845                                 1482500400158 
    105.300     5.1065     0.0863                                 1482500400159 
    107.900     4.9650     0.0877                                 1482500400160 
    110.600     4.7775     0.0886                                 1482500400161 
    113.300     4.8482     0.0897                                 1482500400162 
    116.200     4.8720     0.0913                                 1482500400163 
    119.100     4.6744     0.0917                                 1482500400164 
    122.100     4.5816     0.0926                                 1482500400165 
    125.100     4.4604     0.0947                                 1482500400166 
    128.200     4.5558     0.0979                                 1482500400167 
    131.400     4.4590     0.0991                                 1482500400168 
    134.700     4.2634     0.1012                                 1482500400169 
    138.100     4.4578     0.1041                                 1482500400170 
    141.600     4.1813     0.1053                                 1482500400171 
    145.100     4.0382     0.1076                                 1482500400172 
    148.700     4.0591     0.1115                                 1482500400173 
    152.400     4.0866     0.1139                                 1482500400174 
    156.300     3.8598     0.1137                                 1482500400175 
    160.200     3.9351     0.1192                                 1482500400176 
    164.200     3.8689     0.1227                                 1482500400177 
    168.300     3.8068     0.1259                                 1482500400178 
    172.500     3.4131     0.1282                                 1482500400179 
    176.800     3.7709     0.1345                                 1482500400180 
    181.200     3.3021     0.1352                                 1482500400181 
    185.700     3.2332     0.1411                                 1482500400182 
    190.400     3.2349     0.1457                                 1482500400183 
    195.100     3.3200     0.1583                                 1482500400184 
    200.000     3.3391     0.1612                                 1482500400185 
    205.000     3.5054     0.1692                                 1482500400186 
    210.100     3.5182     0.1780                                 1482500400187 
    215.400     3.4350     0.1884                                 1482500400188 
    220.800     3.0181     0.1971                                 1482500400189 
    226.300     3.1916     0.2050                                 1482500400190 
    232.000     3.4210     0.2232                                 1482500400191 
ENDDATA            177          0                                 1482500400192 
ENDSUBENT          191          0                                 1482500499999 
SUBENT        14825005   20240208                             15141482500500001 
BIB                  3          9                                 1482500500002 
REACTION   (92-U-238(N,TOT),,SIG)                                 1482500500003 
SAMPLE     (92-U-238,ENR=0.998)                                   1482500500004 
           (92-U-235,ENR=0.002) Sample 1: Diameter - 1.906 cm,    1482500500005 
           length - 4.446 cm, n - 0.2128 atom/b. Sample 2:        1482500500006 
           Diameter - 1.907 cm, length - 6.793 cm, n - 0.3254     1482500500007 
           atm/b.                                                 1482500500008 
STATUS     (TABLE,,P.W.Lisowski+,J,NSE,198,1901,2024)             1482500500009 
           Authors data. Also shown in Fig. 7, page 7 of          1482500500010 
           J,NSE,198,1901,2024.                                   1482500500011 
ENDBIB               9          0                                 1482500500012 
NOCOMMON             0          0                                 1482500500013 
DATA                 3         86                                 1482500500014 
EN         DATA       ERR-S                                       1482500500015 
MEV        B          B                                           1482500500016 
      3.297     7.8615     0.0138                                 1482500500017 
      3.467     7.8790     0.0132                                 1482500500018 
      3.644     7.8760     0.0126                                 1482500500019 
      3.831     7.8832     0.0119                                 1482500500020 
      4.028     7.8680     0.0112                                 1482500500021 
      4.234     7.8637     0.0109                                 1482500500022 
      4.451     7.7928     0.0106                                 1482500500023 
      4.679     7.7203     0.0102                                 1482500500024 
      4.919     7.6410     0.0099                                 1482500500025 
      5.171     7.5255     0.0098                                 1482500500026 
      5.437     7.4063     0.0098                                 1482500500027 
      5.715     7.2419     0.0095                                 1482500500028 
      6.008     7.1036     0.0096                                 1482500500029 
      6.316     6.9719     0.0097                                 1482500500030 
      6.640     6.7924     0.0094                                 1482500500031 
      6.981     6.6503     0.0093                                 1482500500032 
      7.339     6.4992     0.0097                                 1482500500033 
      7.715     6.3816     0.0101                                 1482500500034 
      8.110     6.2566     0.0100                                 1482500500035 
      8.526     6.1241     0.0099                                 1482500500036 
      8.963     6.0467     0.0103                                 1482500500037 
      9.423     5.9569     0.0105                                 1482500500038 
      9.906     5.8688     0.0106                                 1482500500039 
     10.410     5.8170     0.0110                                 1482500500040 
     10.950     5.7997     0.0117                                 1482500500041 
     11.510     5.7629     0.0119                                 1482500500042 
     12.100     5.7703     0.0126                                 1482500500043 
     12.720     5.7707     0.0130                                 1482500500044 
     13.370     5.8078     0.0134                                 1482500500045 
     14.060     5.8679     0.0138                                 1482500500046 
     14.780     5.9045     0.0144                                 1482500500047 
     15.540     5.9611     0.0148                                 1482500500048 
     16.330     6.0138     0.0149                                 1482500500049 
     17.170     6.0447     0.0149                                 1482500500050 
     18.050     6.0866     0.0152                                 1482500500051 
     18.980     6.1646     0.0154                                 1482500500052 
     19.950     6.1906     0.0152                                 1482500500053 
     20.970     6.1954     0.0154                                 1482500500054 
     22.050     6.2070     0.0153                                 1482500500055 
     23.180     6.1500     0.0152                                 1482500500056 
     24.360     6.1162     0.0154                                 1482500500057 
     25.610     6.0408     0.0152                                 1482500500058 
     26.930     5.9443     0.0153                                 1482500500059 
     28.310     5.8384     0.0151                                 1482500500060 
     29.760     5.7208     0.0147                                 1482500500061 
     31.290     5.5762     0.0151                                 1482500500062 
     32.890     5.4237     0.0144                                 1482500500063 
     34.580     5.3117     0.0145                                 1482500500064 
     36.350     5.1770     0.0146                                 1482500500065 
     38.210     5.0772     0.0144                                 1482500500066 
     40.170     4.9955     0.0142                                 1482500500067 
     42.230     4.8983     0.0145                                 1482500500068 
     44.400     4.8380     0.0148                                 1482500500069 
     46.670     4.7915     0.0148                                 1482500500070 
     49.070     4.7899     0.0153                                 1482500500071 
     51.580     4.8112     0.0154                                 1482500500072 
     54.230     4.8321     0.0160                                 1482500500073 
     57.010     4.8900     0.0167                                 1482500500074 
     59.930     4.9463     0.0169                                 1482500500075 
     63.000     5.0293     0.0178                                 1482500500076 
     66.230     5.0765     0.0179                                 1482500500077 
     69.630     5.1347     0.0188                                 1482500500078 
     73.200     5.2043     0.0197                                 1482500500079 
     76.950     5.2882     0.0199                                 1482500500080 
     80.890     5.2906     0.0209                                 1482500500081 
     85.040     5.3140     0.0219                                 1482500500082 
     89.400     5.2715     0.0216                                 1482500500083 
     93.990     5.2184     0.0225                                 1482500500084 
     98.800     5.1965     0.0235                                 1482500500085 
    103.900     5.0833     0.0231                                 1482500500086 
    109.200     4.9437     0.0237                                 1482500500087 
    114.800     4.8460     0.0249                                 1482500500088 
    120.700     4.6627     0.0257                                 1482500500089 
    126.900     4.5848     0.0253                                 1482500500090 
    133.400     4.4295     0.0264                                 1482500500091 
    140.200     4.2618     0.0275                                 1482500500092 
    147.400     4.1164     0.0272                                 1482500500093 
    155.000     4.0413     0.0289                                 1482500500094 
    162.900     3.8868     0.0306                                 1482500500095 
    171.300     3.6821     0.0329                                 1482500500096 
    180.000     3.6162     0.0327                                 1482500500097 
    189.300     3.6410     0.0384                                 1482500500098 
    199.000     3.4230     0.0390                                 1482500500099 
    209.200     3.3275     0.0398                                 1482500500100 
    219.900     3.3347     0.0485                                 1482500500101 
    231.200     3.3450     0.0502                                 1482500500102 
ENDDATA             88          0                                 1482500500103 
ENDSUBENT          102          0                                 1482500599999 
SUBENT        14825006   20240208                             15141482500600001 
BIB                  3          8                                 1482500600002 
REACTION   (94-PU-239(N,TOT),,SIG)                                1482500600003 
SAMPLE     (94-PU-239,ENR=0.939)                                  1482500600004 
           (94-PU-240,ENR=0.057)                                  1482500600005 
           (94-PU-241,ENR=0.004) Diameter - 1.908 cm, length -    1482500600006 
           4.453 cm, n - 0.2207 atom/b.                           1482500600007 
STATUS     (TABLE,,P.W.Lisowski+,J,NSE,198,1901,2024)             1482500600008 
           Authors data. Also shown in Fig. 9, page 8 of          1482500600009 
           J,NSE,198,1901,2024.                                   1482500600010 
ENDBIB               8          0                                 1482500600011 
NOCOMMON             0          0                                 1482500600012 
DATA                 3         88                                 1482500600013 
EN         DATA       ERR-S                                       1482500600014 
MEV        B          B                                           1482500600015 
      3.270     7.8220     0.0252                                 1482500600016 
      3.434     7.8442     0.0243                                 1482500600017 
      3.606     7.8741     0.0233                                 1482500600018 
      3.786     7.8489     0.0222                                 1482500600019 
      3.975     7.8483     0.0212                                 1482500600020 
      4.174     7.8201     0.0205                                 1482500600021 
      4.383     7.8022     0.0201                                 1482500600022 
      4.602     7.7388     0.0196                                 1482500600023 
      4.832     7.6711     0.0194                                 1482500600024 
      5.074     7.5666     0.0193                                 1482500600025 
      5.327     7.4272     0.0192                                 1482500600026 
      5.594     7.3304     0.0192                                 1482500600027 
      5.873     7.1662     0.0192                                 1482500600028 
      6.167     7.0212     0.0195                                 1482500600029 
      6.475     6.8809     0.0194                                 1482500600030 
      6.799     6.7306     0.0194                                 1482500600031 
      7.139     6.5708     0.0196                                 1482500600032 
      7.496     6.4624     0.0204                                 1482500600033 
      7.871     6.3334     0.0209                                 1482500600034 
      8.264     6.2132     0.0209                                 1482500600035 
      8.678     6.1217     0.0212                                 1482500600036 
      9.111     5.9834     0.0219                                 1482500600037 
      9.567     5.9477     0.0225                                 1482500600038 
     10.050     5.8461     0.0231                                 1482500600039 
     10.550     5.8209     0.0239                                 1482500600040 
     11.070     5.8058     0.0251                                 1482500600041 
     11.630     5.7373     0.0260                                 1482500600042 
     12.210     5.7104     0.0272                                 1482500600043 
     12.820     5.7126     0.0280                                 1482500600044 
     13.460     5.7724     0.0290                                 1482500600045 
     14.130     5.7923     0.0300                                 1482500600046 
     14.840     5.9026     0.0310                                 1482500600047 
     15.580     5.9233     0.0319                                 1482500600048 
     16.360     5.9712     0.0323                                 1482500600049 
     17.180     6.0591     0.0326                                 1482500600050 
     18.040     6.0168     0.0327                                 1482500600051 
     18.940     6.1277     0.0335                                 1482500600052 
     19.890     6.1600     0.0333                                 1482500600053 
     20.880     6.1141     0.0334                                 1482500600054 
     21.930     6.1682     0.0337                                 1482500600055 
     23.020     6.1073     0.0340                                 1482500600056 
     24.180     6.0338     0.0340                                 1482500600057 
     25.380     6.0922     0.0346                                 1482500600058 
     26.650     5.9226     0.0345                                 1482500600059 
     27.990     5.8737     0.0347                                 1482500600060 
     29.390     5.7098     0.0346                                 1482500600061 
     30.850     5.6065     0.0346                                 1482500600062 
     32.400     5.4886     0.0346                                 1482500600063 
     34.020     5.3916     0.0346                                 1482500600064 
     35.720     5.1954     0.0344                                 1482500600065 
     37.500     5.1373     0.0347                                 1482500600066 
     39.380     4.9752     0.0350                                 1482500600067 
     41.350     4.8797     0.0351                                 1482500600068 
     43.420     4.8170     0.0358                                 1482500600069 
     45.590     4.8345     0.0364                                 1482500600070 
     47.870     4.8018     0.0371                                 1482500600071 
     50.260     4.7341     0.0383                                 1482500600072 
     52.770     4.7661     0.0391                                 1482500600073 
     55.410     4.8831     0.0404                                 1482500600074 
     58.180     4.8565     0.0416                                 1482500600075 
     61.090     4.9442     0.0430                                 1482500600076 
     64.140     5.0011     0.0443                                 1482500600077 
     67.350     5.0965     0.0459                                 1482500600078 
     70.720     5.1935     0.0476                                 1482500600079 
     74.250     5.2233     0.0494                                 1482500600080 
     77.970     5.2308     0.0508                                 1482500600081 
     81.870     5.2393     0.0525                                 1482500600082 
     85.960     5.3264     0.0547                                 1482500600083 
     90.260     5.2279     0.0558                                 1482500600084 
     94.770     5.2249     0.0575                                 1482500600085 
     99.510     5.1476     0.0588                                 1482500600086 
    104.500     5.0786     0.0603                                 1482500600087 
    109.700     4.8674     0.0618                                 1482500600088 
    115.200     4.8709     0.0636                                 1482500600089 
    121.000     4.6034     0.0649                                 1482500600090 
    127.000     4.5389     0.0677                                 1482500600091 
    133.400     4.4109     0.0704                                 1482500600092 
    140.000     4.3986     0.0737                                 1482500600093 
    147.000     4.1126     0.0767                                 1482500600094 
    154.400     4.0471     0.0796                                 1482500600095 
    162.100     3.7758     0.0836                                 1482500600096 
    170.200     3.8294     0.0897                                 1482500600097 
    178.700     3.6443     0.0946                                 1482500600098 
    187.600     3.5224     0.1013                                 1482500600099 
    197.000     3.6173     0.1117                                 1482500600100 
    206.900     3.4736     0.1188                                 1482500600101 
    217.200     3.3962     0.1335                                 1482500600102 
    228.100     3.3244     0.1474                                 1482500600103 
ENDDATA             90          0                                 1482500600104 
ENDSUBENT          103          0                                 1482500699999 
ENDENTRY             6          0                                 1482599999999 
