ENTRY            21748   19840409                             00002174800000001 
SUBENT        21748001   19840409                             00002174800100001 
BIB                 14         44                                 2174800100002 
INSTITUTE  (2JPNKTO) K.K AND Y.F                                  2174800100003 
           (2JPNTIT) Y.F                                          2174800100004 
REFERENCE  (J,NST,18,(11),823,8111)                               2174800100005 
AUTHOR     (K.KOBAYASHI,Y.FUJITA,N.YAMAMURO)                      2174800100006 
TITLE      -MEASUREMENT OF THE NEUTRON CAPTURE CROSS SECTION      2174800100007 
            OF TH-232 FROM 1 KEV TO 408 KEV. -                    2174800100008 
FACILITY   (LINAC,2JPNKTO) 46-MEV LINAC OF RESEARCH REACTOR       2174800100009 
            INSTITUTE, KYOTO UNIVERSITY.                          2174800100010 
SAMPLE     .THO2 POWDER IN AN ALMINUM CAN. SAMPLE THICKNESS       2174800100011 
            WAS ABOUT 2.2 G/CM**2.                                2174800100012 
            CHEMICAL SEPARATION WAS DONE TO REMOVE RADIOACTIVE    2174800100013 
            DAUGHTERS, AND THE SAMPLE WAS HEATED TO REMOVE WATER. 2174800100014 
           .B-10 POWDER IN AN ALMINUM CAN, ENRICHED TO 93 PERCENT 2174800100015 
METHOD     (TOF  ) RELATIVE TO THE B-10(N,ALPHA,GAMMA) CROSS      2174800100016 
            SECTION.                                              2174800100017 
DETECTOR   (SCIN ) A PAIR OF C6D6 LIQUID SCINTILATORS (NE-230)    2174800100018 
            11 CM IN DIA. AND 5 CM THICK, LOCATED AT 12 M ON      2174800100019 
            FLIGHT PATH.                                          2174800100020 
ANALYSIS   .AFTER DEAD TIME CORRECTION, DATA IN EACH CHANNEL WERE 2174800100021 
            ADDED IN ENERGY INTERVAL OF 0.1 LETHERGY UNIT. THE    2174800100022 
            CAPTURE CROSS SECTION WAS MEASURED RELATIVELY TO THE  2174800100023 
            B-10(N,ALPHA,GAMMA) CROSS SECTION AND THE TH-232(N,G) 2174800100024 
            CROSS SECTION AT 24 KEV.  SEE 'MONITOR'.              2174800100025 
MONITOR    (5-B-10(N,A)3-LI-7,PAR,SIG)                            2174800100026 
            VALUES TAKEN FROM INDC-30/L+SP(1980) FOR ENDF/B-V.    2174800100027 
           (90-TH-232(N,G)90-TH-233,,SIG)                         2174800100028 
            520+-45 MB AT 24 KEV, PREVIOUSLY OBTAINED BY THE      2174800100029 
            AUTHES (NST,15,637(1978)).                            2174800100030 
STATUS     .DATA WERE TAKEN FROM MAIN REFERENCE.                  2174800100031 
HISTORY    (811209C) T.N                                          2174800100032 
           (820217E)                                              2174800100033 
           (840106U) A.P.T. JAPAN CODE CHANGED TO JPN             2174800100034 
           (840106E)                                              2174800100035 
CORRECTION .FOR MULTIPLE SCATTERING AND SELF-SHIELDING.           2174800100036 
ERR-ANALYS (ERR-T) ITS ELEMENTS ARE                               2174800100037 
             NORMALIZATION ERROR OF 8.6 PERCENT,                  2174800100038 
             COUNTING STATISTICS OF 1.5 TO 2.0 PERCENT,           2174800100039 
             CORRECTION ERROR OF 1.6 TO 4.2 PERCENT,              2174800100040 
             ERROR IN THE B-10(N,ALPHA,GAMMA) CROSS SECTION OF    2174800100041 
                                 0.2 TO 1.6 PERCENT,              2174800100042 
             OTHER SYSTEMATIC ERRORS WITH CORRELATION OF 1 PER-   2174800100043 
             SENT AND ERRORS WITHOUT CORRELATION OF 1 PERCENT.    2174800100044 
           .IN THE PAPER, ERRORS FOR 11 ELEMENTS ARE GIVEN, AND   2174800100045 
            CORRELATION MATRIX IS ALSO GIVEN FOR 12 ENERGY GROUPS.2174800100046 
ENDBIB              44          0                                 2174800100047 
NOCOMMON             0          0                                 2174800100048 
ENDSUBENT           47          0                                 2174800199999 
SUBENT        21748002   19820730                             00002174800200001 
BIB                  3          3                                 2174800200002 
REACTION   (90-TH-232(N,G)90-TH-233,,SIG,,AV)                     2174800200003 
INC-SOURCE (PHOTO) TANTALUM PLATES, WHITE NEUTRONS.               2174800200004 
STATUS     .DATA WERE TAKEN FROM MAIN REFERENCE.                  2174800200005 
ENDBIB               3          0                                 2174800200006 
NOCOMMON             0          0                                 2174800200007 
DATA                 4         60                                 2174800200008 
EN-MIN     EN-MAX     DATA       ERR-T                            2174800200009 
KEV        KEV        MB         MB                               2174800200010 
 1.0000E+00 1.1000E+00 1.3040E+03 1.3840E+02                      2174800200011 
 1.1000E+00 1.2300E+00 1.3280E+03 1.4220E+02                      2174800200012 
 1.2300E+00 1.3600E+00 1.6140E+03 1.7690E+02                      2174800200013 
 1.3600E+00 1.5000E+00 1.3450E+03 1.4460E+02                      2174800200014 
 1.5000E+00 1.6600E+00 1.7390E+03 1.9220E+02                      2174800200015 
 1.6600E+00 1.8300E+00 1.6320E+03 1.6870E+02                      2174800200016 
 1.8300E+00 2.0200E+00 1.5150E+03 1.5510E+02                      2174800200017 
 2.0200E+00 2.2400E+00 1.6550E+03 1.7170E+02                      2174800200018 
 2.2400E+00 2.4700E+00 1.3160E+03 1.3430E+02                      2174800200019 
 2.4700E+00 2.7300E+00 1.4230E+03 1.5520E+02                      2174800200020 
 2.7300E+00 3.0200E+00 1.2940E+03 1.4400E+02                      2174800200021 
 3.0200E+00 3.3400E+00 1.1940E+03 1.2300E+02                      2174800200022 
 3.3400E+00 3.6900E+00 9.3500E+02 9.8900E+01                      2174800200023 
 3.6900E+00 4.0800E+00 1.0490E+03 1.1090E+02                      2174800200024 
 4.0800E+00 4.5000E+00 1.0570E+03 1.0690E+02                      2174800200025 
 4.5000E+00 4.9800E+00 1.0840E+03 1.0970E+02                      2174800200026 
 4.9800E+00 5.5000E+00 9.2100E+02 9.2000E+01                      2174800200027 
 5.5000E+00 6.0800E+00 1.0020E+03 1.0180E+02                      2174800200028 
 6.0800E+00 6.7200E+00 8.3200E+02 8.2800E+01                      2174800200029 
 6.7200E+00 7.4300E+00 8.2000E+02 8.1900E+01                      2174800200030 
 7.4300E+00 8.2100E+00 8.4400E+02 8.4500E+01                      2174800200031 
 8.2100E+00 9.0700E+00 7.9900E+02 7.9900E+01                      2174800200032 
 9.0700E+00 1.0000E+01 7.0700E+02 7.0100E+01                      2174800200033 
 1.0000E+01 1.1000E+01 7.1200E+02 7.1300E+01                      2174800200034 
 1.1000E+01 1.2300E+01 7.0200E+02 7.0300E+01                      2174800200035 
 1.2300E+01 1.3600E+01 6.8300E+02 6.8200E+01                      2174800200036 
 1.3600E+01 1.5000E+01 6.7100E+02 6.7500E+01                      2174800200037 
 1.5000E+01 1.6600E+01 6.3600E+02 6.3900E+01                      2174800200038 
 1.6600E+01 1.8300E+01 5.7100E+02 5.6700E+01                      2174800200039 
 1.8300E+01 2.0200E+01 5.6600E+02 5.6300E+01                      2174800200040 
 2.0200E+01 2.2400E+01 5.5400E+02 5.5700E+01                      2174800200041 
 2.2400E+01 2.4700E+01 5.2000E+02 5.2000E+01                      2174800200042 
 2.4700E+01 2.7300E+01 5.1100E+02 5.1200E+01                      2174800200043 
 2.7300E+01 3.0200E+01 4.9200E+02 4.9100E+01                      2174800200044 
 3.0200E+01 3.3400E+01 4.7400E+02 4.7200E+01                      2174800200045 
 3.3400E+01 3.6900E+01 4.6200E+02 4.6200E+01                      2174800200046 
 3.6900E+01 4.0800E+01 4.2500E+02 4.2800E+01                      2174800200047 
 4.0800E+01 4.5000E+01 4.1700E+02 4.1900E+01                      2174800200048 
 4.5000E+01 4.9800E+01 3.6900E+02 3.6900E+01                      2174800200049 
 4.9800E+01 5.5000E+01 3.2200E+02 3.1700E+01                      2174800200050 
 5.5000E+01 6.0800E+01 3.3700E+02 3.3600E+01                      2174800200051 
 6.0800E+01 6.7200E+01 2.9400E+02 2.9000E+01                      2174800200052 
 6.7200E+01 7.4300E+01 2.6900E+02 2.6300E+01                      2174800200053 
 7.4300E+01 8.2100E+01 2.6300E+02 2.5900E+01                      2174800200054 
 8.2100E+01 9.0700E+01 2.4800E+02 2.5200E+01                      2174800200055 
 9.0700E+01 1.0000E+02 2.2900E+02 2.3300E+01                      2174800200056 
 1.0000E+02 1.1000E+02 2.1100E+02 2.1400E+01                      2174800200057 
 1.1000E+02 1.2300E+02 2.0900E+02 2.1300E+01                      2174800200058 
 1.2300E+02 1.3600E+02 1.8900E+02 1.8500E+01                      2174800200059 
 1.3600E+02 1.5000E+02 1.7700E+02 1.7300E+01                      2174800200060 
 1.5000E+02 1.6600E+02 1.6200E+02 1.5900E+01                      2174800200061 
 1.6600E+02 1.8300E+02 1.6100E+02 1.5800E+01                      2174800200062 
 1.8300E+02 2.0200E+02 1.6400E+02 1.6300E+01                      2174800200063 
 2.0200E+02 2.2400E+02 1.6100E+02 1.6000E+01                      2174800200064 
 2.2400E+02 2.4700E+02 1.5900E+02 1.6000E+01                      2174800200065 
 2.4700E+02 2.7300E+02 1.4900E+02 1.5200E+01                      2174800200066 
 2.7300E+02 3.0200E+02 1.5200E+02 1.5800E+01                      2174800200067 
 3.0200E+02 3.3400E+02 1.4400E+02 1.5100E+01                      2174800200068 
 3.3400E+02 3.6900E+02 1.3800E+02 1.4700E+01                      2174800200069 
 3.6900E+02 4.0800E+02 1.4500E+02 1.5900E+01                      2174800200070 
ENDDATA             62          0                                 2174800200071 
ENDSUBENT           70          0                                 2174800299999 
SUBENT        21748003   19820730                             00002174800300001 
BIB                  3          3                                 2174800300002 
REACTION   (90-TH-232(N,G)90-TH-233,,SIG)                         2174800300003 
INC-SOURCE (PHOTO) TANTALUM PLATES, AND IRON AND SILICON FILTERS. 2174800300004 
STATUS     .DATA WERE TAKEN FROM MAIN REFERENCE.                  2174800300005 
ENDBIB               3          0                                 2174800300006 
NOCOMMON             0          0                                 2174800300007 
DATA                 3          3                                 2174800300008 
EN         DATA       ERR-T                                       2174800300009 
KEV        MB         MB                                          2174800300010 
 2.4000E+01 5.2000E+02 4.8700E+01                                 2174800300011 
 5.5000E+01 3.2800E+02 3.2000E+01                                 2174800300012 
 1.4600E+02 1.6500E+02 1.5600E+01                                 2174800300013 
ENDDATA              5          0                                 2174800300014 
ENDSUBENT           13          0                                 2174800399999 
ENDENTRY             3          0                                 2174899999999 
