ENTRY            22912   20060226                             21762291200000001 
SUBENT        22912001   20060226                             21762291200100001 
BIB                 12         47                                 2291200100002 
TITLE      .Complete spectroscopy of the 162-Dy nucleus           2291200100003 
AUTHOR     (A.APRAHAMIAN,X.WU,S.R.LESHER,D.D.WARNER,W.GELLETLY,   2291200100004 
           H.G.BORNER,F.HOYLER,K.SCHRECKENBACH,R.F.CASTEN,Z.R.SHI,2291200100005 
           D.KUZNEZOV,M.IBRAHIM,A.O.MACCHIAVELLI,M.A.BRINKMAN,    2291200100006 
           J.A.BECKER)                                            2291200100007 
INSTITUTE  (1USANOT) Aprahamian,Wu,Lesher                         2291200100008 
           (2UK CCH) Warner                                       2291200100009 
           (2UK SUR) Gelletly                                     2291200100010 
           (2FR ILL) Borner,Hoyler,Schreckenbach, and experimental2291200100011 
                     site                                         2291200100012 
           (1USAYAL) Casten,Kuznezov,Ibrahim                      2291200100013 
           (3CPRAEP) Shi                                          2291200100014 
           (1USABRK) Macchiavelli                                 2291200100015 
           (1USALRL) Brinkman,Becker                              2291200100016 
REFERENCE  (J,NP/A,764,42,2006)                                   2291200100017 
FACILITY   (REAC,2FR ILL) High flux reactor.                      2291200100018 
           (SPECC,2FR ILL) GAMS 1,2,3 three curved crystal        2291200100019 
            spectrometers.                                        2291200100020 
            Operate in DuMond geometry using principle of Bragg   2291200100021 
            diffraction from 110 refraction planes in quartz      2291200100022 
            crystals.                                             2291200100023 
            Iron free, beta spectrometer BILL at 2FR ILL          2291200100024 
SAMPLE     40 and 20 mg of Dy2-O3 oxide enriched to 90.41% in     2291200100025 
           Dy-161 for gamma-ray measurements.                     2291200100026 
           Two targets for conversion electron spectra            2291200100027 
           measurements:                                          2291200100028 
           - 46 mg of Dy2-O3, for electron range 550keV-2MeV.     2291200100029 
           - prepared by evaporation, thickness 160 microg/cm2,   2291200100030 
           3x10 cm area. For electron range 30-600 keV.           2291200100031 
           Target of 2.0 gm of enriched Dy-161 was irradiated with2291200100032 
           external thermal beam flux of 1.E+8 n/(cm2*s).         2291200100033 
           10 mg/cm2 thickness, self-supporting, isotopic         2291200100034 
           enrichment 98% in 160-Gd.                              2291200100035 
DETECTOR   (MWPC) 10 wire proportional counters to detect         2291200100036 
            electrons.                                            2291200100037 
           (GE) single Ge detector for gamma-rays.                2291200100038 
METHOD     (GSPEC)                                                2291200100039 
           (BSPEC)                                                2291200100040 
           (COINC)                                                2291200100041 
INC-SOURCE (REAC)                                                 2291200100042 
INC-SPECT  Thermal neutron of 5.5E+14 n/(cm2*s) flux for          2291200100043 
           gamma-ray measurements.                                2291200100044 
           Thermal neutron of 3.E+14 n/(cm2*s) flux for           2291200100045 
           conversion electron spectra measurements.              2291200100046 
COMMENT     E-mail of corresponding author:                       2291200100047 
                  ani.aprahamian@nd.edu                           2291200100048 
HISTORY    (20060226C)  M.M. / S.M.                               2291200100049 
ENDBIB              47          0                                 2291200100050 
COMMON               1          3                                 2291200100051 
EN-DUMMY                                                          2291200100052 
EV                                                                2291200100053 
 0.0253                                                           2291200100054 
ENDCOMMON            3          0                                 2291200100055 
ENDSUBENT           54          0                                 2291200199999 
SUBENT        22912002   20060226                             21762291200200001 
BIB                  5          9                                 2291200200002 
REACTION   (66-DY-161(N,G)66-DY-162,,SPC,,REL/MXW)                2291200200003 
            Gamma-transitions intensities.                        2291200200004 
            Intensity units are not presented in Reference.       2291200200005 
FLAG       (1.) Spin of initial level is 3. or 4.                 2291200200006 
EN-SEC     (E,G) Energy of gamma transition                       2291200200007 
ERR-ANALYS (DATA-ERR)  Errors are not specified.                  2291200200008 
           (LVL-INI-ER) Error of LVL-INI energy                   2291200200009 
           (E-ERR) Error of gamma energy                          2291200200010 
STATUS      From Table 1 of Main Ref.                             2291200200011 
ENDBIB               9          0                                 2291200200012 
NOCOMMON             0          0                                 2291200200013 
DATA                 8        195                                 2291200200014 
E          E-ERR      DATA       DATA-ERR   LVL-INI    LVL-INI-ER 2291200200015 
LVL-FIN    FLAG                                                   2291200200016 
KEV        KEV        ARB-UNITS  ARB-UNITS  KEV        KEV        2291200200017 
KEV        NO-DIM                                                 2291200200018 
  47.705      0.005      0.04     0.02      1999.085   0.006      2291200200019 
   1951.383     1.                                                2291200200020 
  80.659      0.007    170.9      8.4         80.      0.007      2291200200021 
      0.000                                                       2291200200022 
  86.918      0.001      0.33     0.02      1297.001   0.001      2291200200023 
   1210.084                                                       2291200200024 
  89.942      0.001      1.34     0.04      1575.608   0.002      2291200200025 
   1485.666                                                       2291200200026 
  95.158      0.001      0.45     0.02      1485.666   0.002      2291200200027 
   1390.507                                                       2291200200028 
  98.054      0.003      0.09     0.01      1060.986   0.001      2291200200029 
    962.936                                                       2291200200030 
  98.175      0.006      0.03     0.01      1669.078   0.002      2291200200031 
   1570.906                                                       2291200200032 
  98.753      0.001      1.9      0.1       1634.411   0.001      2291200200033 
   1535.660                                                       2291200200034 
 114.245      0.005      4.7      0.3       1297.001   0.001      2291200200035 
   1182.759                                                       2291200200036 
 117.467      0.001      0.93     0.04      1751.879   0.003      2291200200037 
   1634.411                                                       2291200200038 
 120.819      0.006      0.05     0.01      1574.288   0.003      2291200200039 
   1453.462                                                       2291200200040 
 121.774      0.002      0.14     0.01      1182.759   0.001      2291200200041 
   1060.986                                                       2291200200042 
 149.100      0.002      3.4      0.1       1210.084   0.001      2291200200043 
   1060.986                                                       2291200200044 
 150.653      0.005      0.52     0.02      1669.078   0.002      2291200200045 
   1518.420                                                       2291200200046 
 154.026      0.004      0.073    0.09      1728.312   0.003      2291200200047 
   1574.288                                                       2291200200048 
 160.489      0.004      0.16     0.01      1518.420   0.003      2291200200049 
   1357.923                                                       2291200200050 
 161.209      0.005      0.14     0.02      1485.666   0.002      2291200200051 
   1324.457                                                       2291200200052 
 168.093      0.004      0.18     0.02      1738.992   0.002      2291200200053 
   1570.906                                                       2291200200054 
 172.835      0.003      0.82     0.03      1060.986   0.001      2291200200055 
    888.158                                                       2291200200056 
 177.699      0.007      0.17     0.02      1453.462   0.004      2291200200057 
   1275.767                                                       2291200200058 
 184.002      0.001    703.9      7.3        265.661   0.001      2291200200059 
     80.659                                                       2291200200060 
 185.292      0.001     26.7      1.1       1148.226   0.001      2291200200061 
    962.936                                                       2291200200062 
 188.663      0.003      0.25     0.02      1485.666   0.002      2291200200063 
   1297.001                                                       2291200200064 
 192.344      0.005      0.22     0.02      1826.748   0.002      2291200200065 
   1634.411                                                       2291200200066 
 211.711      0.003      0.59     0.02      1963.593   0.002      2291200200067 
   1751.879                                                       2291200200068 
 212.983      0.001     12.7      0.2       1570.906   0.002      2291200200069 
   1357.923                                                       2291200200070 
 216.193      0.013      0.59     0.02      1751.879   0.003      2291200200071 
   1535.660                                                       2291200200072 
 216.365      0.013      0.060    0.007     1574.288   0.003      2291200200073 
   1357.923                                                       2291200200074 
 219.823      0.001      2.0      0.1       1182.759   0.001      2291200200075 
    962.936                                                       2291200200076 
 228.263      0.001      1.45     0.03      1862.672   0.002      2291200200077 
   1634.411                                                       2291200200078 
 230.943      0.001      0.54     0.02      1766.602   0.002      2291200200079 
   1535.660                                                       2291200200080 
 236.008      0.002     18.6      0.9       1297.001   0.001      2291200200081 
   1060.986                                                       2291200200082 
 238.673      0.006      0.06     0.01      1535.660   0.001      2291200200083 
   1297.001                                                       2291200200084 
 247.1479     0.0009    11.2      0.2       1210.084   0.001      2291200200085 
    962.936                                                       2291200200086 
 251.139      0.024      0.18     0.04      1826.748   0.002      2291200200087 
   1575.608                                                       2291200200088 
 251.139      0.024      0.18     0.04      1575.608   0.002      2291200200089 
   1324.457                                                       2291200200090 
 260.067      0.008    129.       2.        1148.226   0.001      2291200200091 
    888.158                                                       2291200200092 
 263.472      0.001      1.23     0.02      1324.457   0.002      2291200200093 
   1060.986                                                       2291200200094 
 269.575      0.010      0.07     0.01      1840.480   0.003      2291200200095 
   1570.906                                                       2291200200096 
 275.582      0.004      0.81     0.04      1485.666   0.002      2291200200097 
   1210.084                                                       2291200200098 
 277.285      0.012      0.047    0.007     1574.288   0.003      2291200200099 
   1297.001                                                       2291200200100 
 278.572      0.001      1.88     0.117     1669.078   0.002      2291200200101 
   1390.507                                                       2291200200102 
 279.266      0.014      0.09     0.02      1637.190   0.002      2291200200103 
   1357.923                                                       2291200200104 
 280.937      0.002      0.52     0.01      1766.602   0.002      2291200200105 
   1485.666                                                       2291200200106 
 282.859      0.002    116.7      1.9        548.518   0.002      2291200200107 
    265.661                                                       2291200200108 
 291.073      0.038      0.034    0.009     1826.748   0.002      2291200200109 
   1535.660                                                       2291200200110 
 292.241      0.008      0.090    0.009     1745.710   0.007      2291200200111 
   1453.462                                                       2291200200112 
 295.141      0.001     21.7      0.4       1570.906   0.002      2291200200113 
   1275.767                                                       2291200200114 
 302.909      0.002      0.38     0.01      1485.666   0.002      2291200200115 
   1182.759                                                       2291200200116 
 308.321      0.006      0.16     0.02      1826.748   0.002      2291200200117 
   1518.420                                                       2291200200118 
 309.952      0.005      0.18     0.02      1634.411   0.001      2291200200119 
   1324.457                                                       2291200200120 
 311.157      0.001     18.1      0.9       1669.078   0.002      2291200200121 
   1357.923                                                       2291200200122 
 321.928      0.002     16.8      0.4       1210.084   0.001      2291200200123 
    888.158                                                       2291200200124 
 327.012      0.001     13.9      0.2       1862.672   0.002      2291200200125 
   1535.660                                                       2291200200126 
 329.184      0.001      3.1      0.2       1963.593   0.002      2291200200127 
   1634.411                                                       2291200200128 
 329.524      0.002      1.43     0.03      1390.507   0.002      2291200200129 
   1060.986                                                       2291200200130 
 329.987      0.015      0.40     0.03      1999.085   0.006      2291200200131 
   1669.078     1.                                                2291200200132 
 334.063      0.001     79.2      2.9       1297.001   0.001      2291200200133 
    962.936                                                       2291200200134 
 337.406      0.009      0.05     0.01      1634.411   0.001      2291200200135 
   1297.001                                                       2291200200136 
 341.081      0.003      0.27     0.03      1826.748   0.002      2291200200137 
   1485.666                                                       2291200200138 
 348.488      0.032      0.37     0.09      1738.992   0.002      2291200200139 
   1390.507                                                       2291200200140 
 352.897      0.006      0.45     0.08      1535.660   0.001      2291200200141 
   1182.759                                                       2291200200142 
 360.824      0.003      0.54     0.03      1570.906   0.002      2291200200143 
   1210.084                                                       2291200200144 
 361.419      0.002      0.50     0.06      1637.190   0.002      2291200200145 
   1275.767                                                       2291200200146 
 364.212      0.008      0.116    0.007     1574.288   0.003      2291200200147 
   1210.084                                                       2291200200148 
 370.389      0.003      0.45     0.02      1728.312   0.003      2291200200149 
   1357.923                                                       2291200200150 
 372.074      0.003      0.83     0.053     1669.078   0.002      2291200200151 
   1297.001                                                       2291200200152 
 377.015      0.005      0.22     0.01      1862.672   0.002      2291200200153 
   1485.666                                                       2291200200154 
 381.069      0.003      0.32     0.02      1738.992   0.002      2291200200155 
   1357.923                                                       2291200200156 
 387.017      0.021      0.009    0.003     1840.480   0.003      2291200200157 
   1453.462                                                       2291200200158 
 387.976      0.012      0.10     0.01      1963.593   0.002      2291200200159 
   1575.608                                                       2291200200160 
 391.541      0.014      0.22     0.02      1574.288   0.003      2291200200161 
   1182.759                                                       2291200200162 
 392.485      0.010      0.18     0.02      1453.462   0.004      2291200200163 
   1060.986                                                       2291200200164 
 392.851      0.005      0.54     0.02      1575.608   0.002      2291200200165 
   1182.759                                                       2291200200166 
 394.333      0.003      0.58     0.03      1691.334   0.002      2291200200167 
   1297.001                                                       2291200200168 
 408.678      0.005      0.24     0.01      1766.602   0.002      2291200200169 
   1357.923                                                       2291200200170 
 415.569      0.003      2.7      0.2       1691.334   0.002      2291200200171 
   1275.767                                                       2291200200172 
 422.692      0.009      0.75     0.09      1570.906   0.002      2291200200173 
   1148.226                                                       2291200200174 
 424.676      0.004      0.48     0.03      1485.666   0.002      2291200200175 
   1060.986                                                       2291200200176 
 427.110      0.002      1.15     0.06      1637.190   0.002      2291200200177 
   1210.084                                                       2291200200178 
 427.433      0.005      0.50     0.04      1751.879   0.003      2291200200179 
   1324.457                                                       2291200200180 
 427.932      0.002      1.91     0.03      1963.593   0.002      2291200200181 
   1535.660                                                       2291200200182 
 436.241      0.004      0.51     0.02      1826.748   0.002      2291200200183 
   1390.507                                                       2291200200184 
 441.988      0.005      0.36     0.02      1738.992   0.002      2291200200185 
   1297.001                                                       2291200200186 
 451.649      0.002      2.2      0.02      1634.411   0.001      2291200200187 
   1182.759                                                       2291200200188 
 452.535      0.08       0.41     0.7       1728.312   0.003      2291200200189 
   1275.767                                                       2291200200190 
 457.485      0.040      0.04     0.01      1518.420   0.003      2291200200191 
   1060.986                                                       2291200200192 
 458.991      0.002      1.6      0.2       1669.078   0.002      2291200200193 
   1210.084                                                       2291200200194 
 463.224      0.004      0.9      0.1       1738.992   0.002      2291200200195 
   1275.767                                                       2291200200196 
 469.602      0.003      1.00     0.007     1766.602   0.002      2291200200197 
   1297.001                                                       2291200200198 
 474.676      0.004      4.5      0.3       1535.660   0.001      2291200200199 
   1060.986                                                       2291200200200 
 486.322      0.008      0.31     0.05      1669.078   0.002      2291200200201 
   1182.759                                                       2291200200202 
 488.963      0.005      1.20     0.09      1637.190   0.002      2291200200203 
   1148.226                                                       2291200200204 
 490.510      0.008      0.59     0.03      1453.462   0.004      2291200200205 
    962.936                                                       2291200200206 
 493.885      0.002      3.0      0.1       1851.805   0.002      2291200200207 
   1357.923                                                       2291200200208 
 497.926      0.012      0.20     0.03      1951.383   0.004      2291200200209 
   1453.462                                                       2291200200210 
 512.464      0.005      1.82     0.07      1060.986   0.001      2291200200211 
    548.518                                                       2291200200212 
 513.314      0.008      0.51     0.03      1574.288   0.003      2291200200213 
   1060.986                                                       2291200200214 
 520.890      0.018      0.11     0.02      1669.078   0.002      2291200200215 
   1148.226                                                       2291200200216 
 528.901      0.005      7.2      0.2       1738.992   0.002      2291200200217 
   1210.084                                                       2291200200218 
 529.749      0.004      3.24     0.09      1826.748   0.002      2291200200219 
   1297.001                                                       2291200200220 
 543.107      0.003      4.8      0.2       1691.334   0.002      2291200200221 
   1148.226                                                       2291200200222 
 543.477      0.004      1.38     0.08      1840.480   0.003      2291200200223 
   1297.001                                                       2291200200224 
 552.486      0.021      0.089    0.013     1910.422   0.005      2291200200225 
   1357.923                                                       2291200200226 
 554.802      0.003      4.7      0.3       1851.805   0.002      2291200200227 
   1297.001                                                       2291200200228 
 556.519      0.002      6.3      0.4       1766.602   0.002      2291200200229 
   1210.084                                                       2291200200230 
 565.316      0.012      0.37     0.06      1453.462   0.004      2291200200231 
    888.158                                                       2291200200232 
 569.129      0.004      1.44     0.07      1751.879   0.003      2291200200233 
   1182.759                                                       2291200200234 
 572.724      0.001     21.8      0.9       1535.660   0.001      2291200200235 
    962.936                                                       2291200200236 
 573.422      0.002      8.62     0.23      1634.411   0.001      2291200200237 
   1060.986                                                       2291200200238 
 590.767      0.003      3.65     0.9       1738.992   0.002      2291200200239 
   1148.226                                                       2291200200240 
 597.429      0.053      0.20     0.03      1745.710   0.007      2291200200241 
   1148.226                                                       2291200200242 
 611.228      0.047      0.12     0.02      1574.288   0.003      2291200200243 
    962.936                                                       2291200200244 
 618.376      0.003      3.2      0.1       1766.602   0.002      2291200200245 
   1148.226                                                       2291200200246 
 622.494      0.003      3.7      0.1        888.158   0.001      2291200200247 
    265.661                                                       2291200200248 
 630.398      0.004      2.3      0.2       1840.480   0.003      2291200200249 
   1210.084                                                       2291200200250 
 634.246      0.002     15.4      0.5       1182.759   0.001      2291200200251 
    548.518                                                       2291200200252 
 639.144      0.011      0.44     0.06      1963.593   0.002      2291200200253 
   1324.457                                                       2291200200254 
 641.715      0.004      2.0      0.2       1851.805   0.002      2291200200255 
   1210.084                                                       2291200200256 
 643.989      0.002      4.3      0.2       1826.748   0.002      2291200200257 
   1182.759                                                       2291200200258 
 647.502      0.002     50.1      0.8       1535.660   0.001      2291200200259 
    888.158                                                       2291200200260 
 652.581      0.003      2.92     0.09      1862.672   0.002      2291200200261 
   1210.084                                                       2291200200262 
 654.381      0.005      2.2      0.1       1951.383   0.004      2291200200263 
   1297.001                                                       2291200200264 
 666.594      0.007      1.26     0.05      1963.593   0.002      2291200200265 
   1297.001                                                       2291200200266 
 669.039      0.012      3.0      0.2       1851.805   0.002      2291200200267 
   1182.759                                                       2291200200268 
 671.475      0.002     11.1      0.3       1634.411   0.001      2291200200269 
    962.936                                                       2291200200270 
 678.009      0.003      6.0      0.2       1738.992   0.002      2291200200271 
   1060.986                                                       2291200200272 
 678.519      0.028      0.55     0.05      1826.748   0.002      2291200200273 
   1148.226                                                       2291200200274 
 682.770      0.081      0.13     0.06      1570.906   0.002      2291200200275 
    888.158                                                       2291200200276 
 686.146      0.059      0.29     0.08      1574.288   0.003      2291200200277 
    888.158                                                       2291200200278 
 697.277      0.002     59.9      2.4        962.936   0.001      2291200200279 
    265.661                                                       2291200200280 
 702.109      0.109      0.16     0.04      1999.085   0.006      2291200200281 
   1297.001     1.                                                2291200200282 
 703.582      0.013      0.83     0.04      1851.805   0.002      2291200200283 
   1148.226                                                       2291200200284 
 705.614      0.007      4.9      0.5       1766.602   0.002      2291200200285 
   1060.986                                                       2291200200286 
 714.444      0.005      6.9      0.5       1862.672   0.002      2291200200287 
   1148.226                                                       2291200200288 
 728.384      0.015      4.7      0.5       1691.334   0.002      2291200200289 
    962.936                                                       2291200200290 
 741.313      0.013      1.60     0.08      1951.383   0.004      2291200200291 
   1210.084                                                       2291200200292 
 753.500      0.011      1.8      0.2       1963.593   0.002      2291200200293 
   1210.084                                                       2291200200294 
 765.756      0.009      2.8      0.2       1826.748   0.002      2291200200295 
   1060.986                                                       2291200200296 
 775.941      0.003     11.0      0.7       1324.457   0.002      2291200200297 
    548.518                                                       2291200200298 
 779.494      0.006      4.0      0.3       1840.480   0.003      2291200200299 
   1060.986                                                       2291200200300 
 780.766      0.039      0.6      0.1       1963.593   0.002      2291200200301 
   1182.759                                                       2291200200302 
 795.327      0.003    115.0      5.4       1060.986   0.001      2291200200303 
    265.661                                                       2291200200304 
 803.677      0.008      5.1      0.2       1766.602   0.002      2291200200305 
    962.936                                                       2291200200306 
 807.5010     0.002    190.8      4.8        888.158   0.001      2291200200307 
     80.659                                                       2291200200308 
 840.204      0.057      0.5      0.2       1728.312   0.003      2291200200309 
    888.158                                                       2291200200310 
 841.990      0.004     13.2      0.4       1390.507   0.002      2291200200311 
    548.518                                                       2291200200312 
 849.435      0.007      7.1      0.2       1910.422   0.005      2291200200313 
   1060.986                                                       2291200200314 
 850.870      0.030      1.0      0.1       1999.085   0.006      2291200200315 
   1148.226     1.                                                2291200200316 
 857.562      0.009      5.2      0.3       1745.710   0.007      2291200200317 
    888.158                                                       2291200200318 
 863.808      0.005     10.6      0.2       1826.748   0.002      2291200200319 
    962.936                                                       2291200200320 
 877.537      0.014      3.0      0.1       1840.480   0.003      2291200200321 
    962.936                                                       2291200200322 
 878.444      0.006     11.2      0.3       1766.602   0.002      2291200200323 
    888.158                                                       2291200200324 
 882.276      0.003    303.4     11.5        962.936   0.001      2291200200325 
     80.659                                                       2291200200326 
 888.157      0.003    174.8      3.9        888.158   0.001      2291200200327 
      0.000                                                       2291200200328 
 902.610      0.020      1.5      0.1       1963.593   0.002      2291200200329 
   1060.986                                                       2291200200330 
 917.092      0.002     80.7      4.9       1182.759   0.001      2291200200331 
    265.661                                                       2291200200332 
 937.144      0.007     12.0      0.8       1485.666   0.002      2291200200333 
    548.518                                                       2291200200334 
 944.424      0.005     48.4      2.2       1210.084   0.001      2291200200335 
    265.661                                                       2291200200336 
 947.484      0.008      8.9      0.3       1910.422   0.005      2291200200337 
    962.936                                                       2291200200338 
 952.417      0.092      0.7      0.2       1840.480   0.003      2291200200339 
    888.158                                                       2291200200340 
 969.908      0.006     10.9      0.4       1518.420   0.003      2291200200341 
    548.518                                                       2291200200342 
 980.336      0.006     67.9      2.5       1060.986   0.001      2291200200343 
     80.659                                                       2291200200344 
 987.150      0.217      0.5      0.2       1535.660   0.001      2291200200345 
    548.518                                                       2291200200346 
 988.443      0.040      2.0      0.2       1951.383   0.004      2291200200347 
    962.936                                                       2291200200348 
1022.278      0.011      8.3      0.5       1910.422   0.005      2291200200349 
    888.158                                                       2291200200350 
1025.753      0.014      5.0      0.2       1574.288   0.003      2291200200351 
    548.518                                                       2291200200352 
1027.149      0.070      3.5      0.6       1575.608   0.002      2291200200353 
    548.518                                                       2291200200354 
1031.358      0.028      2.2      0.1       1297.001   0.001      2291200200355 
    265.661                                                       2291200200356 
1058.779      0.012      6.5      0.2       1324.457   0.002      2291200200357 
    265.661                                                       2291200200358 
1092.256      0.006     46.6      3.0       1357.923   0.002      2291200200359 
    265.661                                                       2291200200360 
1110.839      0.169      1.3      0.2       1999.085   0.006      2291200200361 
    888.158     1.                                                2291200200362 
1124.839      0.010     34.6      0.9       1390.507   0.002      2291200200363 
    265.661                                                       2291200200364 
1129.419      0.006     78.0      2.0       1210.084   0.001      2291200200365 
     80.659                                                       2291200200366 
1187.777      0.012     12.7      0.3       1453.462   0.004      2291200200367 
    256.661                                                       2291200200368 
1195.092      0.007     41.3      3.2       1275.767   0.002      2291200200369 
     80.659                                                       2291200200370 
1219.978      0.034     26.6      0.8       1485.666   0.002      2291200200371 
    265.661                                                       2291200200372 
1252.744      0.029     26.       2.        1518.420   0.003      2291200200373 
    265.661                                                       2291200200374 
1275.810      0.018     30.3      0.8       1275.767   0.002      2291200200375 
      0.000                                                       2291200200376 
1277.271      0.011     64.3      1.2       1357.923   0.002      2291200200377 
     80.659                                                       2291200200378 
1308.627      0.015     24.       2.        1574.288   0.003      2291200200379 
    265.661                                                       2291200200380 
1319.599      0.062      5.9      0.7       1400.258   0.062      2291200200381 
     80.659                                                       2291200200382 
1372.790      0.021     18.1      0.8       1453.462   0.004      2291200200383 
     80.659                                                       2291200200384 
1403.250      0.108      4.1      1.5       1669.078   0.002      2291200200385 
    265.661                                                       2291200200386 
1415.295      0.176      2.2      0.6       1963.593   0.002      2291200200387 
    548.518                                                       2291200200388 
1462.691      0.075      4.1      0.7       1728.312   0.003      2291200200389 
    265.661                                                       2291200200390 
1473.261      0.053      4.5      0.5       1738.992   0.002      2291200200391 
    265.661                                                       2291200200392 
1556.501      0.073      7.8      1.1       1637.190   0.002      2291200200393 
     80.659                                                       2291200200394 
1574.662      0.092      4.9      0.6       1840.480   0.003      2291200200395 
    265.661                                                       2291200200396 
1585.829      0.254      5.7      1.7       1851.805   0.002      2291200200397 
    265.661                                                       2291200200398 
1647.617      0.067     12.7      1.1       1728.312   0.003      2291200200399 
     80.659                                                       2291200200400 
1665.166      0.113      3.3      0.8       1745.710   0.007      2291200200401 
     80.659                                                       2291200200402 
1685.791      0.143      5.4      1.1       1951.383   0.004      2291200200403 
    265.661                                                       2291200200404 
1759.752      0.453      5.7      1.5       1840.480   0.003      2291200200405 
     80.659                                                       2291200200406 
1918.600      0.199      6.7      1.2       1999.085   0.006      2291200200407 
     80.659     1.                                                2291200200408 
ENDDATA            394          0                                 2291200200409 
ENDSUBENT          408          0                                 2291200299999 
SUBENT        22912003   20060110                             21762291200300001 
BIB                  4          9                                 2291200300002 
REACTION   (66-DY-161(N,G)66-DY-162,,SPC,,REL/MXW)                2291200300003 
            Unplaced gamma-transitions, where conversion electron 2291200300004 
            lines were also observed from the neutron capture     2291200300005 
            reaction.                                             2291200300006 
            Intensity units are not presented in Reference.       2291200300007 
EN-SEC     (E,G) Gamma energy                                     2291200300008 
ERR-ANALYS (DATA-ERR)  Errors are not specified.                  2291200300009 
           (E-ERR) Error of gamma energy.                         2291200300010 
STATUS      From Table 2 of Main Ref.                             2291200300011 
ENDBIB               9          0                                 2291200300012 
NOCOMMON             0          0                                 2291200300013 
DATA                 4        282                                 2291200300014 
E          E-ERR      DATA       DATA-ERR                         2291200300015 
KEV        KEV        ARB-UNITS  ARB-UNITS                        2291200300016 
1814.6189   0.0719     14.7832    1.2201                          2291200300017 
1786.987    0.214       6.9875    1.1141                          2291200300018 
1782.020    0.438      10.7599    4.4397                          2291200300019 
1773.721    0.193       6.9883    1.0832                          2291200300020 
1756.663    0.443       4.5522    1.2789                          2291200300021 
1504.574    0.121       2.5562    0.5701                          2291200300022 
1483.142    0.244       6.6797    1.6884                          2291200300023 
1464.4242   0.0885      3.3426    0.6876                          2291200300024 
1460.260    0.117       1.6169    0.4821                          2291200300025 
1456.554    0.384      12.1668    5.5088                          2291200300026 
1442.561    0.211       5.7304    1.2425                          2291200300027 
1438.5992   0.0986      6.4814    0.7890                          2291200300028 
1437.333    0.240       2.4681    0.6439                          2291200300029 
1428.156    0.149       2.4573    0.6638                          2291200300030 
1422.442    0.244       2.8889    0.8052                          2291200300031 
1413.323    0.254       1.4612    0.5002                          2291200300032 
1404.780    0.103       4.1529    1.0743                          2291200300033 
1394.548    0.184       2.4737    0.5422                          2291200300034 
1393.165    0.149       2.0904    0.5205                          2291200300035 
1385.144    0.178       2.9551    0.6193                          2291200300036 
1376.836    0.153       2.5288    0.9147                          2291200300037 
1375.057    0.217       1.6900    0.6994                          2291200300038 
1365.837    0.342      12.0216    3.8525                          2291200300039 
1364.054    0.150       2.7321    0.6817                          2291200300040 
1362.138    9.164       2.3452    0.5600                          2291200300041 
1355.133    0.141       3.6365    0.6747                          2291200300042 
1349.6807   0.851       4.4967    0.5137                          2291200300043 
1342.5897   0.823       5.0981    0.8253                          2291200300044 
1333.2429   0.895       3.0126    0.5369                          2291200300045 
1330.072    0.106       4.6672    0.9456                          2291200300046 
1327.093    0.169       3.1136    1.2012                          2291200300047 
1325.600    0.221       4.3022    1.7318                          2291200300048 
1317.491    0.106       4.6164    0.6174                          2291200300049 
1312.104    0.103       6.9004    0.5699                          2291200300050 
1294.780    0.126       7.4982    1.1995                          2291200300051 
1287.5667   0.0862      2.0894    0.4996                          2291200300052 
1281.6875   0.0890      2.0824    0.5862                          2291200300053 
1269.4637   0.0708      4.0572    0.5729                          2291200300054 
1267.726    0.200       1.8463    0.9212                          2291200300055 
1261.406    0.203       1.7340    0.5184                          2291200300056 
1257.997    0.244       3.0888    0.8031                          2291200300057 
1232.0750   0.0676      3.5832    0.4577                          2291200300058 
1227.9988   0.0751      2.1676    0.8346                          2291200300059 
1222.9728   0.0368      7.5349    0.5536                          2291200300060 
1217.5819   0.0463      6.3776    0.6768                          2291200300061 
1214.017    0.184       4.9827    1.6410                          2291200300062 
1209.0140   0.0652      1.9190    0.2605                          2291200300063 
1206.6389   0.0229      6.3253    0.4753                          2291200300064 
1204.1912   0.0501      2.7035    0.3042                          2291200300065 
1200.388    0.257       1.3355    0.2620                          2291200300066 
1186.684    0.130       1.2099    0.3110                          2291200300067 
1181.692    0.128       1.2988    0.2686                          2291200300068 
1178.2087   0.252       6.0777    0.4282                          2291200300069 
1177.1353   0.0967      1.3455    0.2404                          2291200300070 
1174.8005   0.0674      0.4326    0.3096                          2291200300071 
1173.1229   0.0724      0.8891    0.1058                          2291200300072 
1169.4225   0.0246      3.7972    0.4947                          2291200300073 
1167.598    0.196       0.8146    0.1634                          2291200300074 
1165.5520   0.0865      1.6559    0.1741                          2291200300075 
1161.2537   0.0943      1.3754    0.1773                          2291200300076 
1159.857    0.188       0.6325    0.1464                          2291200300077 
1156.796    0.113       2.0191    0.3506                          2291200300078 
1152.7174   0.0712      1.3254    0.3546                          2291200300079 
1150.892    0.105       1.3322    0.1481                          2291200300080 
1141.6436   0.0653      4.0078    0.6426                          2291200300081 
1141.180    0.101       1.8223    0.4846                          2291200300082 
1132.986    0.139       1.9071    0.1248                          2291200300083 
1132.986    0.139       1.9071    0.1248                          2291200300084 
1132.3738   0.0700      0.9997    0.1258                          2291200300085 
1126.1680   0.0394      5.4519    0.3345                          2291200300086 
1114.6898   0.0618      2.9819    0.1901                          2291200300087 
1113.4130   0.0471      4.5471    0.5592                          2291200300088 
1111.455    0.127       1.6695    0.4805                          2291200300089 
1108.853    0.176       2.1010    0.2569                          2291200300090 
1107.543    0.108       1.7834    0.3884                          2291200300091 
1100.5800   0.0665      1.5158    0.1795                          2291200300092 
1098.6891   0.0822      0.6227    0.2307                          2291200300093 
1096.6062   0.0495      1.8621    0.5300                          2291200300094 
1088.568    0.113       1.7173    0.2603                          2291200300095 
1082.5587   0.0505      2.4894    0.2141                          2291200300096 
1080.247    0.145       0.9775    0.1679                          2291200300097 
1079.0349   0.0608      2.0550    0.2284                          2291200300098 
1073.007    0.141       1.5307    0.1406                          2291200300099 
1066.7366   0.0218      3.7598    0.1629                          2291200300100 
1063.8542   0.0966      1.2023    0.1163                          2291200300101 
1050.2679   0.0878      0.6271    0.1040                          2291200300102 
1027.7328   0.0748      1.1242    0.1278                          2291200300103 
1020.386    0.198       0.6825    0.1810                          2291200300104 
1015.0318   0.0406      1.8067    0.2669                          2291200300105 
1012.0598   0.0596      0.6128    0.2483                          2291200300106 
1010.5464   0.0627      1.3824    0.1970                          2291200300107 
1009.0537   0.0103      8.8789    0.6047                          2291200300108 
1008.1574   0.0576      1.5090    0.2560                          2291200300109 
1007.0773   0.0766      1.7057    0.2093                          2291200300110 
 997.9590   0.0353      0.9898    0.1938                          2291200300111 
 994.5200   0.0897      2.1582    0.1816                          2291200300112 
 992.8378   0.0144      4.5424    0.1495                          2291200300113 
 977.254    0.121       0.6965    0.1469                          2291200300114 
 975.5616   0.0104     14.0989    0.8981                          2291200300115 
 973.229    0.159       0.5517    0.1270                          2291200300116 
 959.3152   0.0614      1.7036    0.1452                          2291200300117 
 957.5767   0.0615      2.6089    0.5626                          2291200300118 
 955.5305   0.0326      4.9887    0.6655                          2291200300119 
 952.9333   0.0390      1.7687    0.1507                          2291200300120 
 934.0937   0.0294      2.2295    0.0158                          2291200300121 
 933.0091   0.0494      1.4969    0.1311                          2291200300122 
 929.2979   0.0532      1.1012    0.1262                          2291200300123 
 913.186    0.119       0.3953    0.0942                          2291200300124 
 911.9468   0.0082      5.4366    0.2045                          2291200300125 
 900.7703   0.0091      4.9026    0.1487                          2291200300126 
 896.4249   0.0774      1.5633    0.2545                          2291200300127 
 894.2500   0.0103      3.8528    0.3811                          2291200300128 
 872.6531   0.0932      0.9744    0.1432                          2291200300129 
 870.8715   0.0680      1.3182    0.1639                          2291200300130 
 865.2416   0.0455      0.8727    0.1346                          2291200300131 
 854.0757   0.0463      1.2225    0.1160                          2291200300132 
 852.7610   0.0458      0.9595    0.1886                          2291200300133 
 852.3344   0.0671      0.9465    0.1300                          2291200300134 
 846.0714   0.0824      0.5740    0.1012                          2291200300135 
 844.8527   0.0638      0.4908    0.0814                          2291200300136 
 843.0609   0.0148      2.3204    0.1591                          2291200300137 
 834.3916   0.0462      1.1808    0.1099                          2291200300138 
 826.2693   0.0858      0.4400    0.0745                          2291200300139 
 820.8288   0.0581      0.5408    0.0621                          2291200300140 
 819.5469   0.0083      3.4431    0.1039                          2291200300141 
 816.1248   0.0344      0.8235    0.1995                          2291200300142 
 809.4170   0.0460      1.5184    0.2443                          2291200300143 
 801.6464   0.0794      0.5013    0.1921                          2291200300144 
 798.516    0.107       0.3694    0.0943                          2291200300145 
 790.1671   0.0088      4.4324    0.1600                          2291200300146 
 787.807    0.160       0.2551    0.1112                          2291200300147 
 782.0205   0.0122      1.6376    0.1533                          2291200300148 
 770.7834   0.0390      0.9036    0.0747                          2291200300149 
 768.7024   0.0093      3.4597    0.1666                          2291200300150 
 756.0464   0.0462      0.2933    0.0475                          2291200300151 
 750.951    0.110       0.2861    0.0429                          2291200300152 
 749.0260   0.0082      1.8584    0.0500                          2291200300153 
 747.2079   0.0066      3.8968    0.0896                          2291200300154 
 745.4669   0.0637      0.3932    0.0573                          2291200300155 
 742.7337   0.0747      0.2357    0.0472                          2291200300156 
 738.6932   0.0658      0.4326    0.0816                          2291200300157 
 737.333    0.123       0.2456    0.0590                          2291200300158 
 735.2424   0.0343      0.3707    0.1404                          2291200300159 
 733.2957   0.0203      0.7673    0.0591                          2291200300160 
 730.4047   0.0164      0.7618    0.0719                          2291200300161 
 729.3742   0.0077      1.9750    0.1587                          2291200300162 
 726.1432   0.0172      0.6678    0.0585                          2291200300163 
 721.643    0.113       0.2440    0.0711                          2291200300164 
 721.3405   0.0513      0.8738    0.1407                          2291200300165 
 718.9075   0.0657      0.1365    0.0351                          2291200300166 
 711.4260   0.0091      1.3177    0.3170                          2291200300167 
 710.6182   0.0225      0.4256    0.0450                          2291200300168 
 709.7857   0.0845      0.1026    0.0430                          2291200300169 
 708.2623   0.0756      0.2539    0.0581                          2291200300170 
 703.0405   0.0130      1.0821    0.0578                          2291200300171 
 695.3039   0.0697      0.2780    0.0826                          2291200300172 
 693.8692   0.0129      1.2183    0.0816                          2291200300173 
 690.6785   0.0289      1.4836    0.2576                          2291200300174 
 687.5416   0.0653      0.2661    0.0307                          2291200300175 
 687.2006   0.0498      0.1702    0.0336                          2291200300176 
 685.3622   0.0051      1.7496    0.0927                          2291200300177 
 684.4098   0.0122      0.6242    0.0367                          2291200300178 
 681.4709   0.0272      0.3224    0.0728                          2291200300179 
 677.7056   0.0170      1.6367    0.1387                          2291200300180 
 676.0565   0.0853      0.2742    0.0490                          2291200300181 
 669.9883   0.0880      0.1616    0.0659                          2291200300182 
 664.7567   0.0422      0.2134    0.0326                          2291200300183 
 658.5953   0.0510      0.2568    0.0617                          2291200300184 
 656.5486   0.0466      0.4408    0.0270                          2291200300185 
 649.6252   0.0141      0.7718    0.0581                          2291200300186 
 638.0090   0.0112      0.3815    0.0887                          2291200300187 
 636.8798   0.0312      0.1787    0.0269                          2291200300188 
 627.6581   0.0825      0.2646    0.0362                          2291200300189 
 627.1845   0.0210      0.3085    0.0296                          2291200300190 
 626.2280   0.0064      1.3116    0.1078                          2291200300191 
 625.5985   0.0158      0.5280    0.2114                          2291200300192 
 623.8214   0.0792      0.1015    0.0271                          2291200300193 
 621.3372   0.0225      0.4026    0.0363                          2291200300194 
 616.6802   0.0040      1.8075    0.0400                          2291200300195 
 616.1344   0.0118      0.4949    0.0313                          2291200300196 
 615.1823   0.0441      0.1614    0.0245                          2291200300197 
 613.3268   0.0126      0.5497    0.0618                          2291200300198 
 610.7694   0.0064      1.0673    0.0611                          2291200300199 
 609.4704   0.0342      0.9024    0.2179                          2291200300200 
 607.1033   0.0268      0.2515    0.0189                          2291200300201 
 599.5708   0.0208      0.1567    0.0347                          2291200300202 
 587.9210   0.0339      0.3435    0.1085                          2291200300203 
 585.6566   0.0312      0.5542    0.1916                          2291200300204 
 584.0813   0.0028     11.5794    0.1702                          2291200300205 
 566.2736   0.0337      0.4481    0.0521                          2291200300206 
 554.8017   0.0027      4.7323    0.2847                          2291200300207 
 550.9105   0.0032      2.1681    0.0896                          2291200300208 
 544.3186   0.0057      0.8726    0.0303                          2291200300209 
 528.6356   0.0256      0.7498    0.1063                          2291200300210 
 523.1743   0.0059      1.8116    0.0592                          2291200300211 
 518.3761   0.0112      0.4491    0.1102                          2291200300212 
 514.8794   0.0072      0.9004    0.0668                          2291200300213 
 513.5261   0.0111      1.5419    0.1708                          2291200300214 
 509.8764   0.0098      0.6537    0.0782                          2291200300215 
 494.5212   0.0025      1.8203    0.2972                          2291200300216 
 475.3686   0.0015      3.7588    0.6604                          2291200300217 
 471.8942   0.0389      0.1383    0.0150                          2291200300218 
 468.7947   0.0049      0.4938    0.0618                          2291200300219 
 467.2767   0.0070      5.3577    0.3915                          2291200300220 
 459.7101   0.0097      0.2195    0.0135                          2291200300221 
 442.9785   0.0041      0.5985    0.0213                          2291200300222 
 442.2203   0.0037      0.5251    0.1363                          2291200300223 
 437.4227   0.0064      0.2288    0.0356                          2291200300224 
 434.9598   0.0258      0.0809    0.0131                          2291200300225 
 433.4489   0.0034      0.5116    0.0139                          2291200300226 
 431.0198   0.0033      0.5115    0.0670                          2291200300227 
 427.6607   0.0014      4.6242    0.3470                          2291200300228 
 422.2430   0.0312      0.1459    0.0395                          2291200300229 
 411.4519   0.0319      0.1901    0.0250                          2291200300230 
 407.6027   0.0020      0.7746    0.1328                          2291200300231 
 398.9316   0.0034      1.7470    0.3511                          2291200300232 
 395.2611   0.0061      0.5121    0.0209                          2291200300233 
 393.0956   0.0045      1.4200    0.2442                          2291200300234 
 385.6353   0.0055      0.7659    0.0515                          2291200300235 
 378.1251   0.0102      0.1239    0.0178                          2291200300236 
 373.9042   0.0042      0.1931    0.0123                          2291200300237 
 372.5967   0.0026      1.6952    0.0280                          2291200300238 
 366.7883   0.0604      0.0444    0.0105                          2291200300239 
 364.5706   0.0114      0.0801    0.0063                          2291200300240 
 358.0810   0.0069      0.1049    0.0113                          2291200300241 
 349.2546   0.0097      1.7579    0.0715                          2291200300242 
 347.3750   0.0016      9.6624    0.2250                          2291200300243 
 347.1935   0.0034      1.6432    0.0821                          2291200300244 
 336.3243   0.0135      0.0808    0.0657                          2291200300245 
 333.4002   0.0010      2.0993    0.1466                          2291200300246 
 322.6878   0.0117      0.2567    0.0621                          2291200300247 
 319.6728   0.0048      0.2335    0.0148                          2291200300248 
 318.1013   0.0026      1.1749    0.4092                          2291200300249 
 315.0589   0.0038      1.4114    0.0624                          2291200300250 
 303.3484   0.0079      0.0901    0.0061                          2291200300251 
 282.8591   0.0018    116.6700    1.9186                          2291200300252 
 265.7942   0.0115      0.0807    0.0092                          2291200300253 
 263.0881   0.0084      0.4460    0.1021                          2291200300254 
 258.0162   0.0021      4.2901    0.0816                          2291200300255 
 257.1138   0.0021      0.8042    0.0200                          2291200300256 
 253.1916   0.0037      0.1443    0.0113                          2291200300257 
 249.2151   0.0007      2.3645    0.0389                          2291200300258 
 244.6132   0.0126      0.1919    0.0270                          2291200300259 
 243.9527   0.0123      0.1116    0.0436                          2291200300260 
 221.7333   0.0012      0.3109    0.0091                          2291200300261 
 221.1883   0.0046      0.0878    0.0096                          2291200300262 
 208.1237   0.0074      0.1224    0.0093                          2291200300263 
 199.1555   0.0024      0.2549    0.0118                          2291200300264 
 197.9079   0.0256      0.0405    0.0115                          2291200300265 
 196.4428   0.0111      0.1449    0.0120                          2291200300266 
 183.5148   0.0108      0.0461    0.0308                          2291200300267 
 180.4481   0.0124      0.0845    0.0136                          2291200300268 
 177.4406   0.0018      1.2211    0.1773                          2291200300269 
 174.7064   0.0066      0.1245    0.0144                          2291200300270 
 172.0738   0.0110      0.1558    0.0550                          2291200300271 
 169.1899   0.0059      0.1017    0.0161                          2291200300272 
 167.3410   0.0023      1.4377    0.2017                          2291200300273 
 164.4128   0.0055      0.0947    0.0106                          2291200300274 
 163.4593   0.0063      0.0748    0.0091                          2291200300275 
 148.2971   0.0043      0.4397    0.0243                          2291200300276 
 142.0799   0.0107      0.0454    0.0151                          2291200300277 
 139.1022   0.0017      0.8509    0.1165                          2291200300278 
 135.7158   0.0024      0.1182    0.0133                          2291200300279 
 133.6856   0.0034      0.1437    0.0174                          2291200300280 
 124.7931   0.0017      0.2391    0.0156                          2291200300281 
 122.4345   0.0109      0.0417    0.0103                          2291200300282 
 120.0628   0.0080      0.0465    0.0108                          2291200300283 
 118.2417   0.0021      0.2179    0.0636                          2291200300284 
 116.7672   0.0049      0.3865    0.0447                          2291200300285 
 115.7998   0.0102      0.0390    0.0100                          2291200300286 
 108.1621   0.0009      2.1948    0.0567                          2291200300287 
  94.6794   0.0035      0.4444    0.1540                          2291200300288 
  93.8972   0.0013      0.2263    0.0133                          2291200300289 
  92.7929   0.0062      0.0519    0.0158                          2291200300290 
  89.9420   0.0008      1.3448    0.0436                          2291200300291 
  86.9184   0.0009      0.3344    0.0174                          2291200300292 
  84.8005   0.0058      0.0623    0.0212                          2291200300293 
  80.6588   0.0007    170.9048    8.4238                          2291200300294 
  77.2879   0.0037      0.0528    0.0154                          2291200300295 
  76.8646   0.0036      0.0319    0.0115                          2291200300296 
  76.5198   0.0015      0.1348    0.0150                          2291200300297 
  41.0430   0.0043      0.0396    0.0203                          2291200300298 
ENDDATA            284          0                                 2291200300299 
ENDSUBENT          298          0                                 2291200399999 
ENDENTRY             3          0                                 2291299999999 
